##TITLE= Nefazolina_BB
##JCAMP-DX= 4.24
##DATA TYPE= INFRARED SPECTRUM
##ORIGIN= JASCO
##OWNER= 
##DATE= 22/03/30
##TIME= 17:56:44
##SPECTROMETER/DATA SYSTEM= 
##RESOLUTION= 
##DELTAX=   0.48211674
##XUNITS= 1/CM
##YUNITS= TRANSMITTANCE
##XFACTOR= 1.00000
##YFACTOR= 1E-005
##FIRSTX=   599.7532
##LASTX=  4000.1226
##NPOINTS=     7054
##FIRSTY=      0.78441
##MAXY=      0.94750
##MINY=      0.37999
##XYDATA= (X++(Y..Y))
599.7532 78441 78166 77944 77778 77684 77686 77789 77941 78043 77993 77755
605.0565 77389 77020 76759 76642 76619 76608 76556 76475 76426 76463 76588
610.3598 76742 76840 76817 76662 76424 76180 75997 75900 75864 75836 75765
615.6631 75632 75461 75294 75165 75077 75000 74897 74746 74530 74236 73846
620.9664 73356 72792 72206 71650 71137 70637 70110 69558 69059 68751 68757
626.2697 69104 69705 70392 70997 71413 71617 71657 71613 71560 71540 71561
631.5729 71599 71621 71604 71549 71486 71458 71497 71616 71804 72047 72338
636.8762 72681 73072 73487 73877 74184 74368 74425 74387 74304 74217 74153
642.1795 74130 74168 74285 74475 74684 74811 74746 74430 73897 73273 72715
647.4828 72343 72181 72162 72185 72186 72186 72256 72460 72789 73153 73420
652.7861 73480 73307 72960 72544 72158 71856 71639 71480 71346 71220 71107
658.0894 71025 71003 71061 71196 71374 71538 71626 71598 71457 71243 71007
663.3926 70787 70595 70425 70277 70171 70153 70295 70704 71495 72531 72862
668.6959 71765 70302 69281 68716 68455 68379 68403 68481 68611 68820 69113
673.9992 69422 69603 69494 69018 68245 67385 66712 66465 66757 67512 68446
679.3025 69126 69152 68388 67113 65968 65662 66565 68407 70303 71205 70519
684.6058 68463 65899 63794 62714 62635 63090 63525 63597 63268 62693 62057
689.9091 61501 61146 61138 61618 62627 64011 65383 66217 66064 64810 62779
695.2123 60595 58893 58055 58084 58633 59170 59240 58676 57644 56502 55595
700.5156 55110 55045 55273 55626 55968 56229 56405 56550 56747 57063 57515
705.8189 58048 58574 59016 59353 59609 59814 59975 60078 60122 60146 60233
711.1222 60472 60918 61575 62396 63304 64205 65005 65622 66009 66160 66121
716.4255 65969 65780 65604 65445 65275 65062 64802 64533 64315 64186 64127
721.7288 64074 63962 63767 63514 63259 63053 62904 62782 62642 62462 62256
727.0320 62062 61919 61840 61814 61807 61780 61697 61539 61308 61034 60763
732.3353 60539 60385 60292 60224 60130 59972 59734 59429 59094 58774 58510
737.6386 58316 58171 58032 57853 57608 57306 56987 56697 56469 56307 56197
742.9419 56115 56053 56016 56019 56075 56177 56301 56413 56478 56478 56406
748.2452 56262 56051 55779 55465 55148 54886 54730 54702 54777 54898 55013
753.5485 55105 55203 55356 55600 55936 56334 56767 57229 57740 58326 58991
758.8517 59705 60420 61097 61725 62319 62899 63477 64041 64564 65005 65329
764.1550 65503 65508 65342 65027 64612 64155 63710 63310 62950 62602 62228
769.4583 61801 61319 60802 60277 59769 59288 58836 58413 58012 57628 57243
774.7616 56840 56404 55931 55430 54916 54398 53869 53310 52701 52029 51293
780.0649 50497 49647 48746 47792 46793 45766 44743 43764 42861 42049 41325
785.3682 40668 40053 39468 38922 38454 38124 37999 38124 38504 39094 39811
790.6714 40564 41284 41945 42561 43163 43775 44409 45064 45743 46461 47246
795.9747 48124 49114 50214 51408 52673 53985 55322 56672 58021 59354 60646
801.2780 61861 62965 63934 64775 65513 66185 66812 67395 67919 68364 68725
806.5813 69013 69247 69442 69604 69730 69817 69862 69868 69845 69808 69780
811.8846 69782 69835 69944 70098 70271 70425 70531 70575 70566 70532 70514
817.1879 70549 70667 70878 71174 71535 71927 72304 72617 72820 72879 72779
822.4911 72526 72138 71633 71031 70356 69650 68976 68410 68020 67849 67903
827.7944 68165 68600 69172 69841 70562 71284 71962 72569 73112 73623 74137
833.0977 74672 75217 75731 76175 76522 76778 76969 77132 77296 77477 77675
838.4010 77879 78074 78248 78392 78508 78608 78705 78810 78926 79045 79162
843.7043 79271 79374 79474 79567 79640 79678 79673 79633 79587 79567 79596
849.0076 79675 79780 79872 79922 79920 79881 79836 79810 79811 79828 79839
854.3109 79830 79802 79766 79733 79704 79671 79629 79578 79525 79467 79388
859.6141 79254 79041 78757 78445 78174 78009 77983 78091 78304 78586 78902
864.9174 79220 79508 79737 79894 79989 80048 80093 80126 80128 80074 79957
870.2207 79795 79618 79444 79265 79060 78813 78539 78276 78065 77929 77861
875.5240 77841 77856 77918 78052 78275 78584 78948 79324 79676 79992 80280
880.8273 80557 80836 81115 81377 81599 81759 81852 81885 81879 81861 81852
886.1306 81864 81892 81920 81924 81886 81803 81689 81573 81489 81463 81500
891.4338 81589 81704 81818 81913 81982 82021 82024 81984 81900 81784 81666
896.7371 81585 81567 81613 81699 81782 81829 81831 81802 81763 81732 81707
902.0404 81681 81645 81602 81561 81531 81509 81484 81444 81385 81314 81242
907.3437 81177 81118 81053 80977 80892 80816 80771 80768 80801 80840 80851
912.6470 80811 80722 80611 80510 80443 80415 80412 80416 80410 80387 80344
917.9503 80281 80200 80114 80038 79993 79985 80008 80046 80084 80121 80170
923.2535 80249 80361 80498 80634 80743 80808 80818 80770 80658 80481 80245
928.5568 79971 79696 79467 79323 79291 79376 79563 79823 80125 80435 80727
933.8601 80985 81205 81391 81555 81708 81854 81988 82097 82169 82197 82187
939.1634 82152 82111 82077 82061 82066 82092 82132 82176 82212 82231 82231
944.4667 82215 82191 82162 82125 82073 82005 81927 81854 81802 81777 81771
949.7700 81765 81737 81676 81586 81476 81357 81234 81106 80969 80819 80650
955.0732 80457 80233 79981 79707 79426 79150 78886 78637 78406 78207 78065
960.3765 78006 78045 78179 78388 78645 78923 79203 79471 79714 79923 80095
965.6798 80237 80359 80468 80561 80623 80636 80594 80506 80395 80284 80182
970.9831 80085 79976 79838 79669 79476 79276 79080 78889 78690 78468 78211
976.2864 77923 77624 77342 77105 76931 76824 76773 76763 76781 76819 76872
981.5897 76934 76994 77044 77077 77096 77109 77125 77145 77163 77168 77155
986.8929 77128 77102 77094 77118 77178 77267 77377 77501 77638 77790 77959
992.1962 78138 78311 78459 78569 78639 78676 78694 78699 78687 78648 78570
997.4995 78452 78304 78147 78001 77877 77774 77682 77586 77482 77373 77269
1002.8028 77181 77112 77055 76997 76921 76817 76685 76529 76355 76163 75952
1008.1061 75721 75473 75218 74966 74723 74483 74239 73987 73731 73485 73265
1013.4094 73078 72925 72802 72705 72631 72574 72515 72417 72241 71956 71562
1018.7126 71099 70638 70263 70049 70042 70254 70655 71189 71777 72335 72785
1024.0160 73065 73133 72973 72586 71988 71194 70217 69064 67747 66292 64752
1029.3192 63204 61741 60449 59400 58641 58209 58127 58407 59035 59957 61085
1034.6226 62311 63546 64736 65871 66962 68022 69042 69999 70869 71641 72328
1039.9258 72952 73535 74084 74591 75046 75446 75796 76109 76392 76647 76863
1045.2291 77027 77119 77122 77013 76772 76380 75834 75146 74353 73512 72691
1050.5323 71968 71418 71104 71069 71331 71875 72658 73619 74682 75772 76823
1055.8357 77786 78633 79356 79961 80460 80864 81186 81436 81625 81767 81872
1061.1389 81947 81997 82023 82025 82004 81964 81913 81862 81825 81805 81802
1066.4423 81800 81788 81756 81709 81660 81621 81599 81586 81571 81542 81495
1071.7455 81432 81357 81275 81181 81068 80924 80741 80525 80298 80098 79967
1077.0488 79933 79998 80131 80286 80423 80522 80592 80652 80719 80788 80838
1082.3521 80845 80797 80705 80601 80518 80479 80483 80509 80530 80527 80496
1087.6554 80449 80402 80364 80333 80298 80248 80179 80095 80007 79925 79856
1092.9586 79800 79752 79704 79650 79586 79516 79448 79392 79353 79329 79313
1098.2620 79298 79281 79260 79237 79213 79185 79150 79109 79065 79023 78989
1103.5652 78963 78939 78914 78884 78853 78823 78798 78777 78758 78738 78715
1108.8685 78693 78675 78659 78642 78619 78586 78546 78504 78465 78430 78398
1114.1718 78366 78331 78290 78242 78184 78120 78055 78001 77968 77958 77961
1119.4751 77961 77943 77900 77840 77777 77721 77676 77635 77586 77523 77447
1124.7783 77366 77292 77229 77178 77133 77088 77040 76986 76927 76861 76790
1130.0817 76711 76629 76544 76459 76371 76275 76165 76040 75901 75749 75584
1135.3849 75400 75188 74944 74666 74360 74035 73699 73359 73023 72708 72440
1140.6882 72250 72161 72187 72322 72545 72830 73154 73494 73834 74158 74450
1145.9915 74697 74893 75035 75128 75177 75188 75170 75127 75063 74973 74850
1151.2948 74689 74490 74265 74027 73783 73531 73263 72974 72668 72364 72088
1156.5980 71865 71708 71619 71585 71584 71592 71591 71570 71531 71483 71436
1161.9014 71392 71347 71292 71221 71136 71053 70990 70963 70974 71009 71048
1167.2046 71073 71075 71060 71044 71037 71042 71051 71048 71025 70981 70927
1172.5079 70880 70849 70838 70845 70868 70906 70964 71043 71140 71246 71353
1177.8112 71457 71559 71665 71779 71898 72014 72118 72203 72267 72311 72334
1183.1145 72336 72313 72268 72203 72123 72034 71936 71829 71711 71578 71428
1188.4177 71261 71077 70880 70674 70463 70242 70002 69732 69422 69075 68702
1193.7211 68326 67971 67661 67420 67266 67211 67253 67376 67552 67749 67935
1199.0243 68089 68200 68266 68286 68263 68204 68113 67997 67864 67721 67575
1204.3276 67434 67303 67182 67066 66951 66833 66716 66603 66499 66405 66321
1209.6309 66246 66177 66115 66052 65982 65896 65791 65667 65529 65381 65224
1214.9342 65052 64865 64663 64452 64239 64028 63821 63616 63416 63224 63046
1220.2374 62884 62742 62620 62520 62442 62389 62357 62340 62329 62312 62276
1225.5408 62214 62122 62001 61857 61697 61526 61346 61157 60958 60753 60548
1230.8440 60356 60188 60053 59950 59874 59816 59766 59717 59665 59608 59545
1236.1473 59479 59411 59343 59273 59195 59103 58996 58876 58749 58619 58486
1241.4506 58346 58194 58029 57849 57655 57443 57213 56966 56707 56446 56190
1246.7539 55941 55694 55442 55180 54910 54638 54371 54110 53854 53597 53332
1252.0571 53059 52782 52506 52239 51981 51730 51480 51225 50958 50676 50376
1257.3605 50055 49715 49362 49012 48689 48425 48252 48188 48241 48407 48677
1262.6637 49041 49486 49990 50518 51026 51475 51831 52076 52204 52214 52112
1267.9670 51908 51621 51277 50906 50533 50172 49830 49504 49189 48882 48584
1273.2703 48300 48033 47783 47548 47319 47088 46852 46608 46359 46105 45848
1278.5736 45586 45317 45042 44764 44484 44205 43926 43648 43374 43110 42864
1283.8768 42646 42462 42317 42217 42168 42185 42282 42476 42772 43170 43663
1289.1802 44241 44900 45631 46420 47235 48035 48771 49398 49887 50219 50390
1294.4834 50409 50285 50037 49689 49272 48821 48368 47937 47541 47186 46876
1299.7867 46615 46408 46259 46167 46134 46157 46232 46353 46512 46700 46912
1305.0900 47147 47409 47700 48021 48368 48735 49117 49509 49909 50316 50725
1310.3933 51133 51536 51931 52319 52700 53074 53437 53783 54107 54410 54698
1315.6965 54982 55273 55578 55898 56227 56554 56870 57166 57441 57699 57946
1320.9999 58188 58425 58656 58878 59092 59304 59522 59752 59996 60244 60485
1326.3031 60705 60895 61057 61195 61322 61445 61571 61698 61823 61939 62044
1331.6064 62138 62221 62296 62361 62416 62464 62511 62566 62635 62716 62797
1336.9097 62861 62896 62903 62895 62892 62912 62956 63009 63051 63068 63057
1342.2130 63022 62968 62897 62817 62733 62650 62568 62483 62388 62277 62147
1347.5162 62004 61855 61708 61569 61439 61320 61215 61131 61075 61052 61063
1352.8196 61114 61214 61375 61607 61902 62239 62590 62930 63250 63543 63807
1358.1228 64035 64224 64372 64485 64567 64627 64668 64695 64712 64725 64732
1363.4261 64732 64716 64682 64626 64551 64459 64357 64254 64161 64089 64042
1368.7294 64020 64011 64000 63975 63930 63865 63785 63700 63617 63543 63477
1374.0327 63416 63349 63269 63177 63078 62976 62875 62773 62669 62557 62432
1379.3359 62292 62139 61976 61809 61642 61475 61304 61119 60915 60689 60447
1384.6393 60200 59959 59732 59519 59317 59114 58901 58670 58424 58166 57896
1389.9425 57613 57314 57000 56673 56339 56001 55665 55341 55053 54841 54742
1395.2458 54751 54826 54928 55057 55240 55527 55964 56545 57175 57720 58117
1400.5491 58389 58587 58750 58894 59022 59137 59252 59392 59580 59812 60051
1405.8524 60260 60427 60570 60712 60871 61051 61246 61451 61667 61901 62159
1411.1556 62445 62755 63089 63442 63808 64181 64558 64944 65353 65795 66262
1416.4590 66730 67174 67594 68035 68589 69321 70147 70867 71389 71768 72087
1421.7622 72413 72793 73262 73833 74467 75085 75628 76097 76524 76943 77362
1427.0656 77771 78154 78507 78847 79206 79601 80009 80379 80679 80917 81129
1432.3688 81346 81576 81802 81998 82149 82258 82335 82394 82440 82472 82496
1437.6721 82521 82560 82623 82724 82876 83092 83372 83707 84078 84469 84870
1442.9753 85276 85682 86077 86445 86766 87028 87225 87361 87441 87467 87442
1448.2787 87376 87286 87179 87056 86907 86723 86498 86235 85950 85663 85387
1453.5819 85129 84892 84679 84490 84319 84146 83936 83675 83409 83220 83133
1458.8853 83128 83181 83278 83415 83592 83807 84046 84292 84526 84730 84875
1464.1885 84919 84817 84587 84314 84082 83935 83903 84021 84319 84793 85396
1469.4918 86053 86704 87322 87908 88482 89043 89527 89832 89955 89972 89929
1474.7950 89822 89618 89273 88776 88173 87530 86885 86238 85594 84992 84510
1480.0984 84255 84312 84688 85296 86011 86735 87419 88047 88610 89099 89513
1485.4016 89864 90177 90473 90757 91005 91188 91296 91341 91345 91333 91332
1490.7050 91355 91395 91439 91480 91513 91535 91545 91541 91523 91490 91442
1496.0082 91384 91326 91272 91213 91135 91035 90920 90809 90713 90628 90542
1501.3115 90442 90324 90195 90065 89942 89830 89724 89612 89461 89193 88698
1506.6147 88042 87530 87192 86852 86413 85878 85295 84725 84220 83822 83572
1511.9181 83498 83602 83852 84199 84601 85035 85495 86001 86618 87430 88412
1517.2213 89333 89986 90380 90615 90775 90911 91059 91246 91471 91677 91815
1522.5247 91903 91962 91998 92003 91974 91917 91848 91789 91746 91710 91671
1527.8279 91622 91566 91508 91453 91400 91346 91290 91230 91167 91101 91040
1533.1312 90996 90981 90992 91010 91020 91019 91010 90998 90995 91012 91066
1538.4344 91166 91283 91306 91158 90948 90782 90673 90593 90519 90438 90351
1543.7378 90264 90186 90127 90095 90081 90072 90057 90029 89990 89940 89882
1549.0410 89819 89751 89682 89609 89534 89459 89386 89318 89253 89191 89129
1554.3444 89071 89021 88983 88958 88947 88953 88975 89010 89012 88862 88591
1559.6476 88414 88314 88226 88128 88020 87907 87793 87682 87572 87457 87325
1564.9509 87168 86988 86799 86614 86438 86270 86106 85936 85748 85528 85289
1570.2542 85050 84814 84559 84263 83912 83509 83081 82662 82278 81936 81637
1575.5575 81386 81215 81138 81120 81123 81134 81154 81175 81180 81146 81057
1580.8607 80907 80700 80446 80154 79832 79489 79133 78771 78407 78042 77678
1586.1641 77317 76959 76599 76232 75850 75446 75015 74549 74038 73468 72831
1591.4674 72126 71364 70550 69683 68758 67778 66776 65822 65015 64446 64180
1596.7706 64237 64584 65135 65755 66293 66605 66594 66229 65546 64628 63570
1602.0740 62452 61333 60261 59278 58420 57706 57143 56735 56488 56409 56499
1607.3772 56751 57154 57707 58411 59255 60193 61160 62109 63038 63992 65023
1612.6805 66150 67328 68464 69484 70385 71279 72435 74240 76762 79265 81022
1617.9838 82112 82920 83703 84552 85442 86291 87025 87626 88137 88623 89129
1623.2871 89626 90034 90325 90541 90734 90937 91167 91442 91774 92148 92519
1628.5903 92840 93101 93320 93519 93714 93905 94083 94233 94352 94447 94529
1633.8937 94611 94692 94750 94738 94648 94547 94483 94458 94456 94464 94476
1639.1969 94491 94509 94532 94556 94575 94584 94582 94575 94569 94570 94577
1644.5002 94587 94594 94584 94541 94456 94350 94271 94246 94268 94313 94363
1649.8035 94403 94427 94430 94412 94374 94327 94304 94342 94360 94319 94255
1655.1068 94191 94133 94085 94047 94019 94000 93985 93972 93957 93941 93926
1660.4100 93919 93921 93936 93959 93979 93979 93955 93916 93874 93835 93804
1665.7134 93779 93760 93743 93726 93710 93700 93705 93731 93771 93809 93838
1671.0166 93858 93871 93874 93867 93848 93821 93789 93763 93761 93787 93823
1676.3199 93843 93844 93831 93810 93786 93762 93743 93736 93742 93759 93777
1681.6232 93786 93782 93762 93725 93682 93667 93690 93703 93689 93659 93623
1686.9265 93585 93551 93523 93500 93482 93465 93447 93431 93417 93405 93394
1692.2297 93378 93356 93325 93288 93247 93208 93170 93131 93080 93021 92961
1697.5331 92905 92852 92800 92748 92707 92698 92728 92746 92735 92711 92680
1702.8363 92648 92614 92581 92552 92538 92550 92590 92645 92694 92721 92724
1708.1396 92716 92709 92715 92739 92776 92814 92838 92841 92824 92791 92746
1713.4429 92703 92679 92697 92758 92836 92902 92941 92954 92951 92951 92962
1718.7462 92971 92968 92955 92940 92926 92915 92904 92892 92878 92864 92858
1724.0494 92861 92870 92877 92875 92863 92843 92820 92796 92773 92747 92719
1729.3528 92688 92655 92616 92565 92501 92425 92347 92281 92254 92283 92318
1734.6560 92288 92206 92114 92029 91957 91896 91847 91814 91809 91848 91929
1739.9594 92019 92075 92090 92081 92071 92080 92118 92179 92240 92278 92288
1745.2626 92277 92257 92238 92232 92246 92280 92323 92353 92359 92345 92328
1750.5659 92331 92375 92455 92544 92618 92668 92699 92717 92728 92739 92755
1755.8691 92777 92801 92818 92821 92812 92800 92790 92785 92782 92779 92780
1761.1725 92793 92832 92891 92953 92999 93023 93025 93010 92983 92950 92919
1766.4757 92897 92891 92905 92937 92969 92981 92968 92935 92892 92850 92827
1771.7791 92834 92861 92877 92870 92850 92833 92828 92840 92863 92884 92891
1777.0823 92877 92842 92794 92742 92698 92674 92682 92719 92771 92814 92831
1782.3856 92820 92787 92745 92711 92701 92721 92757 92787 92794 92775 92739
1787.6888 92700 92670 92654 92652 92656 92661 92666 92674 92690 92715 92737
1792.9922 92746 92738 92718 92690 92655 92613 92564 92512 92461 92413 92372
1798.2954 92339 92323 92330 92363 92413 92470 92520 92557 92578 92581 92569
1803.5988 92546 92516 92481 92443 92404 92367 92340 92329 92336 92356 92381
1808.9020 92401 92409 92403 92388 92375 92376 92394 92425 92457 92475 92470
1814.2053 92443 92405 92372 92360 92371 92395 92410 92401 92365 92314 92268
1819.5085 92242 92241 92258 92277 92281 92257 92207 92146 92095 92076 92102
1824.8119 92162 92214 92219 92167 92079 91983 91901 91850 91845 91890 91960
1830.1151 92012 92019 91989 91938 91879 91815 91750 91691 91646 91628 91641
1835.4185 91684 91747 91814 91872 91911 91928 91926 91908 91875 91829 91776
1840.7217 91724 91676 91632 91589 91550 91529 91548 91613 91688 91724 91706
1846.0250 91654 91598 91569 91584 91636 91696 91732 91735 91721 91714 91734
1851.3282 91783 91845 91891 91903 91876 91827 91781 91757 91766 91798 91837
1856.6316 91862 91865 91849 91832 91833 91859 91904 91946 91958 91926 91856
1861.9348 91773 91713 91703 91746 91824 91905 91961 91980 91967 91938 91912
1867.2382 91901 91905 91916 91926 91931 91931 91926 91919 91909 91899 91892
1872.5414 91888 91884 91876 91863 91848 91838 91841 91858 91887 91925 91971
1877.8447 92025 92083 92133 92157 92142 92090 92020 91960 91929 91929 91946
1883.1479 91962 91971 91979 91998 92028 92050 92037 91977 91883 91786 91725
1888.4513 91723 91775 91849 91909 91942 91955 91961 91955 91923 91855 91757
1893.7545 91653 91572 91536 91546 91586 91639 91690 91727 91735 91706 91638
1899.0579 91546 91457 91392 91360 91358 91379 91419 91477 91541 91584 91578
1904.3611 91510 91399 91293 91243 91273 91365 91475 91553 91579 91569 91563
1909.6644 91592 91661 91742 91802 91818 91794 91745 91693 91652 91624 91599
1914.9677 91568 91528 91493 91484 91530 91642 91792 91918 91962 91909 91784
1920.2710 91631 91493 91417 91441 91577 91791 92003 92136 92158 92084 91959
1925.5742 91829 91723 91646 91583 91523 91470 91456 91509 91635 91793 91916
1930.8776 91943 91856 91691 91517 91401 91378 91449 91594 91788 92001 92195
1936.1808 92318 92323 92190 91948 91668 91429 91273 91188 91125 91036 90913
1941.4841 90804 90788 90917 91149 91373 91488 91459 91319 91143 91015 90989
1946.7874 91060 91167 91235 91220 91135 91045 91040 91186 91487 91871 92215
1952.0907 92394 92338 92064 91664 91276 91021 90954 91046 91199 91305 91307
1957.3939 91237 91196 91296 91585 92008 92424 92683 92710 92535 92247 91926
1962.6973 91591 91220 90809 90416 90146 90106 90333 90753 91186 91414 91301
1968.0005 90879 90312 89814 89562 89655 90086 90744 91457 92065 92485 92721
1973.3038 92821 92820 92712 92471 92107 91705 91408 91355 91595 92038 92489
1978.6071 92744 92700 92399 91986 91626 91435 91437 91568 91717 91788 91743
1983.9104 91616 91483 91414 91436 91534 91673 91834 92019 92227 92427 92560
1989.2136 92575 92475 92328 92239 92294 92495 92728 92823 92669 92280 91770
1994.5170 91289 90970 90884 91027 91321 91661 91949 92136 92223 92247 92251
1999.8202 92257 92263 92250 92206 92132 92046 91961 91880 91789 91662 91474
2005.1235 91211 90894 90588 90398 90442 90779 91365 92039 92583 92816 92690
2010.4268 92310 91878 91580 91500 91607 91805 92015 92210 92411 92634 92861
2015.7301 93048 93160 93208 93235 93275 93313 93288 93144 92867 92500 92105
2021.0333 91734 91411 91158 91009 91014 91208 91583 92080 92617 93106 93474
2026.3367 93662 93636 93410 93065 92727 92522 92500 92605 92709 92687 92497
2031.6399 92189 91864 91604 91430 91309 91195 91066 90941 90861 90863 90960
2036.9432 91124 91293 91400 91406 91338 91278 91328 91549 91912 92307 92594
2042.2465 92680 92555 92271 91896 91485 91075 90704 90412 90243 90220 90337
2047.5498 90559 90835 91106 91313 91416 91402 91295 91133 90949 90765 90595
2052.8530 90469 90433 90528 90751 91034 91274 91386 91359 91254 91159 91127
2058.1563 91144 91158 91131 91076 91041 91067 91148 91233 91277 91272 91260
2063.4597 91288 91367 91451 91473 91390 91218 91017 90848 90738 90676 90635
2068.7629 90597 90566 90556 90577 90620 90668 90711 90751 90802 90874 90966
2074.0662 91056 91125 91163 91177 91181 91176 91143 91053 90887 90663 90435
2079.3694 90275 90239 90335 90517 90703 90809 90790 90656 90471 90318 90259
2084.6729 90313 90446 90596 90704 90744 90723 90670 90618 90587 90586 90613
2089.9761 90662 90718 90762 90774 90742 90671 90584 90508 90462 90454 90478
2095.2793 90527 90601 90702 90822 90930 90979 90928 90768 90538 90310 90151
2100.5825 90090 90108 90158 90203 90238 90287 90375 90496 90608 90657 90613
2105.8860 90492 90348 90246 90221 90267 90342 90390 90373 90284 90151 90016
2111.1892 89922 89895 89939 90046 90198 90372 90540 90668 90727 90709 90635
2116.4924 90549 90495 90488 90500 90477 90380 90214 90040 89940 89969 90119
2121.7957 90321 90482 90539 90493 90402 90339 90349 90428 90534 90622 90670
2127.0991 90688 90696 90710 90727 90733 90724 90711 90718 90762 90840 90929
2132.4023 90996 91024 91018 91001 90987 90968 90914 90798 90626 90438 90292
2137.7056 90231 90263 90363 90493 90618 90713 90754 90724 90620 90468 90318
2143.0088 90225 90211 90257 90315 90343 90334 90312 90310 90336 90372 90393
2148.3123 90381 90340 90280 90213 90155 90135 90199 90383 90686 91047 91359
2153.6155 91510 91439 91169 90812 90529 90477 90742 91296 91980 92543 92734
2158.9187 92451 91819 91118 90603 90363 90315 90301 90207 90022 89825 89725
2164.2219 89785 89991 90274 90545 90749 90873 90949 91030 91160 91352 91570
2169.5254 91742 91782 91639 91331 90943 90587 90349 90251 90249 90272 90267
2174.8286 90223 90160 90100 90046 89993 89953 89968 90098 90378 90777 91181
2180.1318 91438 91428 91141 90694 90284 90078 90139 90402 90709 90894 90855
2185.4351 90583 90154 89685 89290 89051 89005 89139 89397 89693 89945 90101
2190.7385 90164 90181 90218 90319 90479 90640 90713 90626 90370 90015 89694
2196.0417 89547 89651 89979 90402 90733 90827 90647 90284 89913 89694 89692
2201.3450 89846 90005 90006 89766 89318 88804 88408 88285 88494 88979 89591
2206.6482 90150 90514 90635 90556 90375 90177 89992 89800 89576 89337 89149
2211.9517 89095 89216 89480 89795 90063 90229 90299 90315 90314 90301 90258
2217.2549 90162 90001 89777 89503 89202 88915 88697 88596 88634 88784 88983
2222.5581 89165 89299 89399 89499 89619 89745 89838 89867 89829 89747 89650
2227.8613 89551 89447 89335 89229 89155 89133 89157 89189 89180 89099 88959
2233.1648 88809 88712 88707 88797 88947 89112 89251 89345 89387 89383 89338
2238.4680 89267 89186 89118 89083 89089 89138 89223 89337 89475 89618 89738
2243.7712 89792 89743 89580 89332 89065 88854 88752 88765 88856 88964 89040
2249.0745 89069 89072 89084 89124 89175 89203 89182 89124 89072 89071 89128
2254.3779 89194 89194 89074 88852 88609 88447 88422 88516 88652 88751 88774
2259.6812 88748 88730 88760 88837 88919 88959 88935 88865 88789 88740 88730
2264.9844 88747 88768 88780 88777 88765 88753 88753 88772 88815 88873 88927
2270.2876 88950 88926 88859 88775 88713 88697 88728 88782 88825 88833 88806
2275.5911 88759 88715 88685 88666 88646 88613 88569 88522 88484 88463 88457
2280.8943 88454 88443 88417 88378 88337 88310 88305 88317 88325 88306 88245
2286.1975 88151 88052 87987 87979 88032 88123 88216 88281 88301 88275 88214
2291.5007 88136 88061 88008 87987 87996 88021 88039 88036 88011 87981 87970
2296.8042 87991 88038 88086 88104 88071 87989 87884 87793 87748 87761 87817
2302.1074 87887 87939 87959 87952 87936 87926 87922 87910 87872 87802 87708
2307.4106 87614 87541 87504 87505 87538 87595 87668 87742 87795 87807 87770
2312.7139 87695 87609 87546 87526 87547 87589 87627 87638 87615 87561 87488
2318.0173 87406 87326 87257 87212 87203 87234 87294 87358 87396 87390 87341
2323.3206 87267 87193 87137 87105 87095 87101 87121 87150 87178 87193 87190
2328.6238 87174 87155 87141 87127 87098 87050 87000 86982 87027 87133 87267
2333.9270 87379 87439 87447 87420 87376 87313 87214 87076 86923 86804 86765
2339.2305 86823 86955 87108 87227 87281 87273 87222 87152 87088 87052 87059
2344.5337 87111 87183 87242 87260 87235 87189 87145 87113 87091 87072 87050
2349.8369 87031 87025 87046 87095 87152 87183 87161 87089 86996 86926 86912
2355.1401 86956 87031 87111 87187 87283 87437 87659 87914 88122 88194 88088
2360.4436 87836 87537 87309 87233 87318 87503 87686 87775 87736 87603 87454
2365.7468 87365 87372 87458 87570 87649 87667 87632 87580 87540 87523 87515
2371.0500 87495 87453 87403 87374 87393 87473 87600 87743 87865 87939 87954
2376.3533 87915 87843 87766 87709 87694 87726 87795 87879 87953 88000 88012
2381.6567 87999 87975 87954 87947 87961 87993 88040 88090 88131 88155 88157
2386.9600 88142 88122 88109 88109 88122 88139 88154 88159 88153 88135 88106
2392.2632 88067 88022 87979 87947 87928 87919 87907 87886 87854 87823 87804
2397.5664 87802 87815 87834 87854 87874 87895 87918 87934 87933 87912 87877
2402.8699 87846 87834 87844 87865 87876 87861 87822 87775 87743 87744 87780
2408.1731 87836 87886 87908 87893 87849 87797 87762 87760 87794 87849 87902
2413.4763 87931 87921 87872 87797 87717 87652 87619 87624 87662 87720 87777
2418.7795 87812 87810 87767 87699 87633 87596 87600 87635 87669 87673 87633
2424.0830 87560 87486 87442 87439 87466 87498 87514 87509 87492 87481 87484
2429.3862 87500 87523 87543 87560 87579 87603 87631 87652 87653 87622 87564
2434.6895 87492 87429 87393 87390 87408 87432 87447 87446 87437 87429 87434
2439.9927 87457 87492 87531 87561 87573 87568 87550 87532 87526 87536 87559
2445.2961 87590 87620 87650 87682 87714 87738 87741 87711 87649 87572 87507
2450.5994 87477 87490 87534 87586 87623 87636 87633 87630 87643 87675 87719
2455.9026 87757 87776 87773 87753 87726 87705 87696 87704 87727 87759 87791
2461.2058 87814 87821 87815 87805 87803 87817 87841 87862 87865 87840 87791
2466.5093 87735 87689 87662 87656 87662 87668 87671 87670 87671 87680 87699
2471.8125 87722 87740 87746 87735 87715 87694 87681 87682 87688 87691 87679
2477.1157 87650 87614 87584 87576 87595 87636 87680 87710 87712 87688 87651
2482.4189 87617 87599 87600 87614 87631 87646 87658 87674 87696 87725 87755
2487.7224 87783 87809 87832 87851 87856 87834 87779 87697 87609 87540 87509
2493.0256 87518 87551 87588 87616 87632 87639 87644 87646 87647 87651 87668
2498.3289 87705 87763 87827 87872 87880 87844 87774 87693 87620 87569 87545
2503.6321 87550 87581 87630 87685 87731 87751 87738 87698 87646 87597 87559
2508.9355 87531 87503 87470 87435 87407 87397 87412 87445 87485 87523 87558
2514.2388 87597 87644 87695 87734 87742 87708 87637 87544 87448 87360 87286
2519.5420 87229 87195 87194 87230 87296 87369 87423 87442 87425 87387 87348
2524.8452 87322 87309 87303 87295 87284 87269 87258 87254 87263 87288 87327
2530.1487 87371 87404 87405 87362 87276 87168 87069 87005 86984 86993 87011
2535.4519 87020 87019 87023 87052 87111 87184 87242 87262 87237 87184 87129
2540.7551 87089 87070 87062 87057 87052 87055 87071 87102 87136 87162 87172
2546.0583 87167 87153 87137 87123 87110 87096 87083 87073 87070 87077 87092
2551.3618 87119 87152 87182 87191 87158 87075 86952 86823 86728 86700 86743
2556.6650 86838 86944 87026 87059 87040 86978 86893 86806 86736 86701 86711
2561.9683 86764 86845 86926 86977 86977 86923 86831 86730 86650 86606 86598
2567.2715 86610 86624 86627 86619 86606 86598 86599 86612 86635 86669 86713
2572.5750 86761 86801 86818 86802 86756 86695 86643 86615 86615 86627 86630
2577.8782 86608 86561 86506 86462 86439 86433 86427 86406 86366 86320 86284
2583.1814 86272 86287 86321 86361 86398 86428 86450 86463 86465 86454 86429
2588.4849 86394 86353 86316 86291 86280 86282 86288 86285 86263 86221 86165
2593.7881 86108 86057 86018 85995 85989 85999 86020 86044 86053 86035 85986
2599.0913 85918 85846 85789 85753 85739 85741 85753 85771 85792 85811 85823
2604.3945 85824 85814 85797 85780 85763 85743 85717 85681 85635 85585 85536
2609.6980 85494 85462 85437 85419 85404 85392 85385 85385 85392 85402 85407
2615.0012 85401 85382 85359 85341 85337 85345 85356 85361 85353 85335 85316
2620.3044 85299 85286 85270 85247 85212 85169 85121 85076 85037 85004 84975
2625.6077 84949 84921 84893 84867 84850 84844 84850 84862 84871 84870 84860
2630.9111 84842 84820 84795 84763 84725 84683 84646 84622 84612 84607 84598
2636.2144 84576 84543 84508 84483 84471 84470 84470 84459 84434 84397 84353
2641.5176 84313 84282 84265 84259 84258 84254 84239 84210 84168 84119 84070
2646.8208 84028 83995 83972 83953 83935 83915 83892 83867 83840 83811 83779
2652.1243 83747 83718 83698 83689 83684 83677 83660 83632 83601 83574 83555
2657.4275 83540 83524 83502 83477 83454 83439 83433 83428 83415 83389 83354
2662.7307 83317 83287 83271 83271 83281 83292 83295 83280 83246 83200 83153
2668.0339 83116 83094 83086 83084 83082 83078 83072 83067 83063 83059 83051
2673.3374 83038 83024 83012 83004 82999 82993 82980 82956 82924 82889 82857
2678.6406 82834 82821 82818 82820 82825 82832 82838 82841 82841 82834 82823
2683.9438 82809 82798 82792 82795 82805 82823 82844 82867 82885 82897 82898
2689.2471 82889 82874 82856 82840 82828 82823 82827 82840 82864 82895 82929
2694.5505 82956 82971 82975 82969 82961 82955 82956 82962 82974 82989 83005
2699.8538 83021 83030 83030 83019 83001 82981 82968 82966 82977 83002 83037
2705.1570 83078 83119 83152 83173 83177 83167 83150 83137 83133 83140 83152
2710.4602 83161 83164 83163 83165 83176 83197 83225 83252 83269 83274 83269
2715.7637 83259 83251 83248 83251 83260 83273 83286 83297 83301 83296 83285
2721.0669 83270 83259 83256 83266 83288 83317 83347 83372 83388 83392 83389
2726.3701 83380 83372 83366 83363 83363 83365 83371 83380 83391 83399 83403
2731.6733 83400 83390 83379 83369 83363 83359 83357 83356 83358 83364 83372
2736.9768 83381 83385 83382 83374 83366 83362 83362 83363 83357 83339 83309
2742.2800 83274 83243 83228 83232 83253 83281 83306 83319 83315 83293 83257
2747.5833 83215 83174 83144 83133 83142 83166 83193 83207 83199 83167 83120
2752.8865 83073 83039 83024 83025 83031 83035 83030 83020 83011 83010 83021
2758.1899 83040 83060 83072 83071 83058 83039 83021 83009 83006 83009 83011
2763.4932 83006 82989 82961 82931 82903 82885 82878 82878 82882 82886 82888
2768.7964 82887 82883 82876 82865 82855 82851 82854 82863 82871 82867 82845
2774.0996 82807 82761 82719 82687 82667 82655 82646 82639 82637 82643 82659
2779.4031 82682 82705 82720 82723 82717 82706 82694 82682 82670 82658 82648
2784.7063 82643 82646 82657 82671 82681 82682 82674 82660 82644 82630 82621
2790.0095 82618 82623 82634 82645 82650 82644 82625 82602 82584 82581 82595
2795.3127 82620 82645 82657 82649 82623 82584 82543 82505 82475 82456 82451
2800.6162 82461 82485 82515 82541 82552 82544 82520 82487 82458 82441 82435
2805.9194 82438 82440 82435 82420 82395 82367 82340 82318 82301 82283 82260
2811.2227 82233 82207 82188 82182 82187 82193 82189 82168 82126 82073 82019
2816.5259 81979 81961 81964 81979 81990 81984 81954 81907 81856 81818 81803
2821.8293 81806 81817 81822 81811 81788 81760 81738 81726 81720 81712 81695
2827.1326 81667 81637 81615 81605 81605 81606 81593 81561 81509 81445 81381
2832.4358 81325 81284 81259 81249 81252 81259 81265 81263 81248 81223 81192
2837.7390 81162 81135 81111 81086 81058 81029 81001 80981 80970 80968 80973
2843.0425 80976 80970 80952 80921 80880 80835 80792 80754 80721 80694 80670
2848.3457 80651 80636 80623 80609 80591 80572 80556 80545 80539 80530 80510
2853.6489 80471 80415 80348 80282 80227 80186 80161 80146 80137 80130 80121
2858.9521 80107 80087 80059 80027 79991 79955 79916 79872 79821 79763 79700
2864.2556 79640 79591 79557 79537 79529 79523 79511 79489 79457 79418 79380
2869.5588 79349 79329 79317 79306 79289 79261 79220 79173 79127 79085 79047
2874.8621 79008 78964 78916 78869 78828 78799 78783 78777 78774 78770 78757
2880.1653 78735 78702 78665 78628 78594 78561 78524 78478 78422 78363 78311
2885.4688 78274 78254 78246 78244 78242 78241 78240 78237 78227 78208 78181
2890.7720 78150 78123 78106 78099 78104 78123 78155 78200 78248 78286 78302
2896.0752 78292 78266 78240 78229 78233 78246 78253 78243 78216 78177 78138
2901.3784 78105 78081 78063 78043 78015 77980 77943 77911 77894 77894 77907
2906.6819 77924 77935 77933 77919 77897 77873 77850 77828 77808 77790 77771
2911.9851 77754 77739 77727 77723 77730 77747 77769 77786 77790 77775 77744
2917.2883 77709 77680 77665 77665 77672 77677 77672 77656 77630 77600 77574
2922.5916 77556 77548 77548 77547 77538 77516 77480 77434 77381 77325 77266
2927.8950 77206 77146 77092 77048 77013 76984 76954 76917 76870 76812 76747
2933.1982 76676 76604 76530 76456 76379 76296 76205 76108 76014 75932 75865
2938.5015 75810 75756 75691 75607 75506 75399 75296 75205 75126 75055 74989
2943.8047 74928 74878 74845 74834 74839 74851 74858 74853 74836 74814 74796
2949.1082 74790 74804 74842 74903 74980 75062 75132 75176 75187 75173 75148
2954.4114 75132 75136 75162 75200 75235 75257 75259 75246 75226 75203 75180
2959.7146 75158 75134 75110 75089 75072 75058 75044 75027 75007 74987 74972
2965.0178 74963 74958 74951 74937 74917 74894 74875 74863 74860 74865 74877
2970.3213 74893 74912 74934 74958 74988 75022 75061 75105 75151 75200 75252
2975.6245 75311 75377 75451 75535 75630 75735 75850 75972 76096 76221 76346
2980.9277 76474 76605 76737 76863 76974 77063 77130 77182 77227 77276 77335
2986.2310 77407 77494 77592 77698 77806 77915 78022 78125 78220 78301 78365
2991.5344 78414 78455 78498 78550 78609 78670 78726 78778 78835 78908 79003
2996.8376 79118 79242 79361 79465 79554 79633 79709 79788 79872 79959 80049
3002.1409 80138 80227 80315 80403 80490 80574 80654 80726 80789 80840 80880
3007.4441 80910 80934 80959 80991 81030 81076 81124 81170 81212 81248 81280
3012.7476 81307 81330 81350 81368 81384 81398 81407 81407 81397 81379 81360
3018.0508 81349 81354 81377 81415 81462 81511 81554 81584 81596 81591 81575
3023.3540 81561 81557 81564 81574 81570 81542 81491 81434 81391 81375 81383
3028.6572 81404 81422 81431 81433 81438 81451 81467 81478 81476 81455 81420
3033.9607 81377 81331 81286 81246 81210 81182 81162 81148 81136 81117 81087
3039.2639 81047 81003 80966 80941 80925 80911 80885 80841 80782 80722 80674
3044.5671 80650 80651 80667 80682 80681 80656 80609 80553 80506 80478 80468
3049.8704 80464 80448 80408 80337 80242 80134 80028 79936 79864 79812 79777
3055.1738 79749 79720 79687 79652 79619 79589 79557 79514 79455 79380 79301
3060.4771 79230 79175 79135 79101 79068 79033 79001 78974 78955 78942 78932
3065.7803 78924 78917 78907 78886 78845 78779 78696 78610 78541 78500 78490
3071.0835 78501 78517 78525 78514 78479 78421 78345 78261 78181 78118 78078
3076.3870 78061 78057 78055 78044 78018 77978 77927 77873 77822 77782 77754
3081.6902 77740 77733 77725 77707 77674 77624 77564 77502 77444 77397 77363
3086.9934 77340 77326 77319 77318 77319 77316 77306 77287 77263 77237 77213
3092.2966 77189 77162 77125 77078 77025 76977 76946 76940 76958 76991 77027
3097.6001 77054 77066 77065 77058 77050 77046 77042 77033 77015 76984 76945
3102.9033 76903 76865 76839 76832 76848 76885 76933 76976 76998 76993 76968
3108.2065 76940 76925 76933 76965 77010 77058 77102 77135 77155 77161 77149
3113.5098 77123 77090 77064 77056 77074 77113 77164 77214 77255 77287 77313
3118.8132 77339 77371 77407 77446 77485 77524 77561 77595 77622 77640 77647
3124.1165 77644 77635 77625 77620 77626 77645 77677 77717 77760 77799 77834
3129.4197 77867 77903 77945 77994 78045 78088 78118 78134 78145 78167 78208
3134.7229 78272 78347 78415 78460 78477 78473 78464 78465 78482 78515 78557
3140.0264 78603 78650 78698 78749 78799 78843 78876 78899 78911 78918 78923
3145.3296 78931 78948 78980 79032 79101 79179 79254 79317 79364 79401 79434
3150.6328 79472 79516 79567 79627 79696 79776 79860 79938 79994 80018 80012
3155.9360 79988 79963 79956 79976 80024 80095 80178 80262 80341 80408 80463
3161.2395 80508 80549 80592 80641 80701 80772 80851 80932 81011 81082 81146
3166.5427 81204 81255 81299 81334 81358 81378 81403 81443 81505 81586 81677
3171.8459 81768 81851 81927 81997 82067 82138 82208 82275 82335 82390 82438
3177.1492 82484 82530 82579 82632 82685 82737 82784 82829 82878 82937 83010
3182.4526 83094 83177 83246 83293 83318 83329 83342 83369 83414 83475 83544
3187.7559 83610 83670 83725 83782 83847 83922 83998 84064 84105 84119 84113
3193.0591 84100 84097 84112 84149 84204 84271 84342 84405 84451 84474 84475
3198.3623 84467 84464 84479 84515 84567 84625 84680 84729 84770 84800 84813
3203.6658 84801 84764 84711 84661 84630 84629 84655 84694 84730 84751 84754
3208.9690 84742 84720 84693 84663 84628 84589 84543 84486 84416 84333 84242
3214.2722 84153 84077 84022 83988 83972 83971 83977 83983 83979 83955 83911
3219.5754 83857 83816 83809 83846 83916 83995 84054 84076 84061 84026 83998
3224.8789 84000 84043 84125 84225 84318 84386 84424 84450 84487 84557 84663
3230.1821 84784 84894 84968 85004 85018 85036 85078 85148 85231 85310 85369
3235.4854 85410 85446 85495 85572 85677 85803 85934 86051 86142 86200 86228
3240.7886 86234 86232 86235 86252 86287 86341 86407 86483 86563 86644 86724
3246.0920 86806 86890 86978 87070 87160 87241 87305 87347 87368 87371 87365
3251.3953 87357 87355 87367 87394 87438 87497 87568 87645 87722 87791 87844
3256.6985 87879 87900 87922 87961 88026 88113 88205 88282 88329 88347 88351
3262.0017 88363 88401 88471 88567 88668 88753 88805 88819 88806 88782 88761
3267.3052 88754 88765 88795 88847 88918 89003 89087 89156 89199 89214 89214
3272.6084 89213 89224 89253 89298 89350 89402 89447 89482 89511 89539 89569
3277.9116 89603 89632 89653 89663 89671 89694 89745 89827 89927 90023 90092
3283.2148 90122 90118 90098 90086 90096 90130 90180 90230 90267 90284 90286
3288.5183 90282 90284 90299 90330 90372 90415 90447 90459 90449 90429 90414
3293.8215 90421 90455 90509 90573 90639 90702 90761 90813 90852 90876 90886
3299.1248 90890 90894 90901 90906 90905 90898 90894 90902 90924 90951 90970
3304.4280 90976 90973 90972 90981 90999 91014 91018 91010 91004 91013 91046
3309.7314 91100 91163 91220 91263 91291 91308 91321 91339 91364 91395 91427
3315.0347 91453 91468 91468 91458 91446 91440 91448 91474 91516 91569 91621
3320.3379 91662 91685 91691 91684 91673 91661 91649 91632 91610 91591 91588
3325.6411 91612 91663 91728 91784 91818 91827 91824 91829 91851 91887 91920
3330.9446 91933 91923 91902 91889 91903 91942 91991 92028 92034 92009 91967
3336.2478 91928 91910 91921 91956 92004 92055 92096 92123 92133 92127 92112
3341.5510 92095 92082 92075 92072 92068 92060 92051 92051 92071 92115 92179
3346.8542 92247 92297 92311 92291 92252 92223 92225 92260 92307 92333 92313
3352.1577 92246 92155 92082 92063 92110 92206 92312 92388 92411 92381 92321
3357.4609 92260 92218 92201 92205 92219 92237 92255 92273 92293 92310 92320
3362.7642 92316 92296 92263 92227 92197 92186 92197 92229 92276 92326 92370
3368.0674 92400 92414 92411 92395 92372 92352 92342 92344 92356 92371 92380
3373.3708 92380 92370 92355 92344 92342 92350 92363 92372 92370 92353 92322
3378.6741 92287 92262 92255 92272 92312 92365 92422 92474 92513 92536 92539
3383.9773 92526 92501 92473 92448 92431 92419 92407 92389 92363 92333 92305
3389.2805 92285 92280 92291 92315 92344 92370 92384 92383 92369 92349 92327
3394.5840 92308 92289 92272 92259 92256 92271 92303 92347 92389 92418 92426
3399.8872 92412 92383 92348 92317 92299 92298 92314 92340 92368 92388 92395
3405.1904 92388 92374 92358 92344 92335 92331 92330 92331 92328 92320 92310
3410.4937 92301 92300 92304 92304 92291 92261 92222 92194 92191 92216 92254
3415.7971 92282 92287 92269 92243 92228 92229 92245 92263 92276 92280 92273
3421.1003 92257 92235 92214 92202 92210 92238 92277 92307 92313 92289 92247
3426.4036 92208 92189 92199 92231 92271 92303 92315 92303 92267 92220 92178
3431.7068 92158 92170 92210 92260 92298 92305 92280 92235 92190 92160 92154
3437.0103 92165 92181 92191 92193 92187 92183 92187 92199 92215 92228 92229
3442.3135 92217 92197 92179 92173 92179 92195 92211 92219 92217 92205 92187
3447.6167 92164 92135 92098 92055 92011 91974 91949 91940 91947 91966 91995
3452.9199 92030 92068 92102 92130 92147 92155 92151 92137 92115 92089 92063
3458.2234 92045 92040 92053 92081 92119 92156 92180 92182 92160 92120 92076
3463.5266 92038 92012 91996 91986 91979 91979 91989 92009 92035 92055 92061
3468.8298 92050 92030 92011 92002 92008 92027 92049 92067 92074 92068 92049
3474.1331 92025 92001 91986 91983 91991 92002 92007 91998 91972 91937 91904
3479.4365 91883 91879 91887 91902 91917 91926 91927 91919 91898 91867 91833
3484.7397 91810 91806 91824 91856 91889 91916 91938 91960 91987 92016 92035
3490.0430 92034 92008 91965 91915 91872 91841 91821 91808 91795 91784 91777
3495.3462 91774 91775 91778 91779 91778 91777 91777 91782 91793 91810 91830
3500.6497 91849 91860 91859 91846 91828 91820 91830 91856 91882 91889 91863
3505.9529 91802 91717 91627 91550 91502 91492 91523 91592 91683 91776 91849
3511.2561 91887 91884 91845 91786 91726 91681 91657 91652 91658 91666 91670
3516.5593 91664 91648 91626 91604 91593 91595 91606 91614 91607 91584 91551
3521.8628 91526 91529 91567 91631 91706 91776 91833 91872 91889 91876 91829
3527.1660 91755 91673 91603 91556 91530 91521 91523 91539 91571 91615 91656
3532.4692 91675 91662 91623 91578 91550 91555 91590 91636 91667 91671 91650
3537.7725 91619 91592 91573 91562 91554 91541 91520 91494 91470 91456 91459
3543.0759 91477 91500 91509 91493 91454 91413 91397 91423 91486 91561 91620
3548.3792 91644 91632 91591 91533 91468 91409 91372 91372 91414 91482 91546
3553.6824 91580 91578 91550 91519 91501 91499 91501 91493 91469 91439 91417
3558.9856 91407 91402 91386 91353 91314 91293 91307 91353 91404 91425 91396
3564.2891 91322 91233 91169 91167 91242 91368 91496 91583 91620 91618 91592
3569.5923 91552 91511 91475 91452 91440 91434 91426 91413 91401 91397 91404
3574.8955 91415 91419 91406 91375 91335 91302 91286 91291 91315 91356 91408
3580.1990 91464 91513 91541 91539 91503 91441 91369 91304 91258 91231 91220
3585.5022 91221 91236 91271 91331 91412 91499 91570 91606 91597 91545 91460
3590.8054 91359 91262 91191 91164 91184 91240 91310 91374 91420 91441 91436
3596.1086 91409 91361 91294 91214 91131 91064 91035 91063 91148 91267 91381
3601.4121 91449 91455 91407 91330 91255 91205 91187 91193 91203 91193 91149
3606.7153 91079 91022 91029 91128 91289 91440 91522 91525 91477 91418 91378
3612.0186 91369 91384 91401 91408 91405 91394 91374 91333 91268 91185 91102
3617.3218 91047 91041 91089 91167 91240 91283 91294 91285 91265 91240 91208
3622.6252 91166 91113 91051 90989 90941 90923 90942 90995 91073 91163 91266
3627.9285 91385 91510 91585 91556 91451 91320 91195 91094 91032 91024 91073
3633.2317 91162 91253 91306 91311 91287 91256 91235 91226 91223 91215 91192
3638.5349 91157 91119 91086 91063 91051 91046 91049 91060 91079 91098 91109
3643.8384 91103 91077 91039 91004 90995 91037 91130 91235 91292 91274 91200
3649.1416 91121 91089 91135 91237 91346 91430 91479 91492 91469 91412 91331
3654.4448 91244 91177 91152 91166 91176 91145 91080 91009 90962 90955 90990
3659.7480 91050 91111 91154 91173 91174 91164 91149 91133 91120 91113 91109
3665.0515 91101 91082 91050 91010 90977 90965 90988 91052 91153 91276 91385
3670.3547 91441 91433 91378 91299 91208 91108 90997 90876 90767 90747 90903
3675.6580 91142 91302 91364 91370 91351 91323 91291 91257 91223 91195 91174
3680.9612 91160 91146 91124 91090 91047 91002 90962 90924 90878 90810 90719
3686.2646 90617 90532 90518 90622 90831 91046 91173 91198 91157 91099 91066
3691.5679 91069 91093 91113 91110 91081 91029 90969 90914 90875 90855 90847
3696.8711 90850 90863 90886 90914 90937 90948 90946 90940 90949 90985 91032
3702.1743 91055 91032 90976 90916 90883 90896 90948 91005 91027 90995 90920
3707.4778 90836 90783 90793 90861 90942 90989 90988 90970 90984 91048 91125
3712.7810 91164 91151 91102 91039 90974 90911 90849 90788 90739 90718 90741
3718.0842 90807 90888 90939 90938 90895 90847 90829 90859 90917 90946 90910
3723.3875 90818 90713 90640 90630 90691 90788 90862 90871 90822 90748 90686
3728.6909 90655 90662 90708 90795 90918 91057 91162 91182 91111 90988 90863
3733.9941 90783 90780 90846 90915 90918 90852 90756 90665 90597 90560 90558
3739.2974 90600 90691 90818 90948 91036 91061 91029 90970 90923 90943 91053
3744.6006 91158 91148 91056 90943 90840 90762 90730 90768 90890 91055 91177
3749.9041 91198 91138 91054 90994 90978 90980 90963 90922 90870 90826 90801
3755.2073 90805 90837 90884 90924 90940 90931 90908 90892 90904 90949 91001
3760.5105 91029 91016 90966 90891 90810 90745 90712 90724 90781 90872 90969
3765.8137 91033 91045 91012 90953 90888 90834 90813 90847 90926 91001 91026
3771.1172 90992 90920 90838 90773 90740 90740 90759 90780 90795 90804 90810
3776.4204 90813 90809 90794 90773 90761 90770 90797 90813 90797 90747 90678
3781.7236 90612 90563 90544 90562 90620 90715 90831 90938 91007 91026 91003
3787.0269 90960 90922 90903 90899 90895 90873 90827 90768 90715 90680 90667
3792.3303 90665 90658 90639 90608 90573 90546 90540 90567 90627 90702 90765
3797.6335 90798 90802 90786 90764 90754 90778 90850 90950 91015 91009 90960
3802.9368 90901 90843 90780 90701 90606 90508 90450 90485 90615 90756 90830
3808.2400 90827 90782 90731 90698 90691 90702 90715 90717 90701 90668 90620
3813.5435 90561 90496 90443 90441 90530 90690 90824 90872 90845 90780 90708
3818.8467 90656 90644 90696 90816 90960 91055 91084 91073 91044 91002 90943
3824.1499 90867 90780 90698 90639 90620 90645 90698 90750 90775 90761 90713
3829.4531 90642 90568 90520 90518 90553 90586 90584 90550 90505 90481 90495
3834.7566 90547 90613 90674 90734 90810 90906 90992 91021 90982 90909 90849
3840.0598 90827 90836 90851 90852 90835 90809 90787 90775 90770 90761 90741
3845.3630 90711 90675 90637 90605 90585 90580 90588 90600 90603 90585 90544
3850.6663 90481 90404 90331 90303 90392 90641 90933 91080 91054 90929 90772
3855.9697 90632 90542 90520 90556 90608 90636 90624 90585 90544 90527 90547
3861.2729 90584 90598 90558 90471 90372 90312 90337 90450 90583 90660 90662
3866.5762 90616 90553 90497 90471 90498 90604 90770 90907 90948 90911 90841
3871.8794 90772 90729 90730 90784 90861 90910 90904 90860 90809 90767 90734
3877.1829 90699 90654 90602 90557 90548 90598 90693 90777 90806 90782 90731
3882.4861 90672 90617 90568 90535 90530 90571 90661 90764 90834 90852 90826
3887.7893 90769 90694 90613 90544 90507 90525 90605 90715 90795 90811 90771
3893.0925 90706 90643 90601 90587 90597 90616 90633 90646 90665 90702 90762
3898.3960 90831 90876 90871 90824 90766 90723 90704 90697 90677 90629 90559
3903.6992 90491 90452 90455 90493 90547 90599 90640 90661 90660 90638 90604
3909.0024 90571 90549 90543 90549 90560 90573 90588 90608 90625 90634 90628
3914.3057 90613 90603 90615 90657 90717 90762 90761 90715 90647 90588 90559
3919.6091 90566 90597 90628 90640 90632 90610 90588 90579 90594 90639 90705
3924.9124 90769 90808 90814 90791 90756 90724 90706 90703 90705 90701 90691
3930.2156 90689 90711 90762 90824 90861 90845 90781 90704 90650 90640 90674
3935.5188 90731 90784 90812 90809 90781 90739 90691 90642 90593 90546 90510
3940.8223 90494 90508 90556 90625 90690 90730 90738 90725 90708 90702 90715
3946.1255 90741 90766 90769 90742 90692 90644 90625 90648 90706 90775 90833
3951.4287 90865 90873 90861 90836 90805 90770 90738 90716 90710 90719 90736
3956.7319 90749 90749 90733 90707 90682 90671 90682 90712 90750 90778 90780
3962.0354 90752 90707 90667 90651 90668 90708 90753 90786 90796 90783 90755
3967.3386 90723 90693 90670 90658 90662 90683 90720 90765 90807 90831 90829
3972.6418 90802 90756 90705 90656 90617 90590 90579 90584 90606 90636 90661
3977.9451 90668 90654 90624 90596 90589 90613 90666 90731 90789 90825 90833
3983.2485 90818 90789 90754 90721 90697 90687 90690 90702 90714 90713 90693
3988.5518 90660 90626 90610 90624 90667 90722 90771 90800 90807 90798 90782
3993.8550 90762 90739 90713 90686 90666 90660 90673 90702 90742 90781 90812
3999.1582 90830 90834 90827
##END= 
