##TITLE= metile p idrossibenzoato
##JCAMP-DX= 4.24
##DATA TYPE= INFRARED SPECTRUM
##ORIGIN= JASCO
##OWNER= 
##DATE= 22/03/30
##TIME= 16:52:13
##SPECTROMETER/DATA SYSTEM= 
##RESOLUTION= 
##DELTAX=   0.48211674
##XUNITS= 1/CM
##YUNITS= TRANSMITTANCE
##XFACTOR= 1.00000
##YFACTOR= 1E-005
##FIRSTX=   599.7532
##LASTX=  4000.1226
##NPOINTS=     7054
##FIRSTY=      0.69343
##MAXY=      0.93716
##MINY=      0.16317
##XYDATA= (X++(Y..Y))
599.7532 69343 69302 69227 69056 68778 68461 68227 68185 68365 68693 69024
605.0565 69210 69167 68899 68482 68028 67642 67388 67274 67248 67226 67130
610.3598 66928 66644 66326 66014 65711 65393 65034 64634 64206 63768 63337
615.6631 62942 62659 62605 62893 63539 64407 65255 65851 66075 65950 65610
620.9664 65229 64940 64776 64674 64532 64285 63945 63593 63329 63216 63236
626.2697 63307 63323 63209 62942 62543 62066 61572 61122 60768 60555 60502
631.5729 60598 60790 60983 61073 60987 60721 60347 59983 59736 59644 59662
636.8762 59696 59648 59467 59148 58722 58225 57688 57140 56617 56161 55807
642.1795 55574 55453 55421 55449 55519 55617 55715 55764 55697 55450 54993
647.4828 54353 53606 52850 52164 51579 51081 50629 50179 49697 49161 48567
652.7861 47931 47294 46704 46196 45763 45358 44909 44357 43677 42885 42017
658.0894 41103 40155 39166 38112 36961 35685 34273 32742 31133 29495 27865
663.3926 26276 24779 23435 22295 21361 20587 19925 19445 19687 22377 29443
668.6959 37921 43819 47855 51507 55332 59243 62803 65474 66913 67165 66608
673.9992 65732 64912 64304 63824 63207 62125 60342 57844 54860 51762 48903
679.3025 46491 44538 42882 41275 39501 37500 35444 33724 32826 33139 34778
684.6058 37492 40717 43781 46188 47789 48744 49321 49699 49890 49799 49351
689.9091 48583 47627 46614 45598 44551 43426 42217 40977 39763 38578 37359
695.2123 36017 34518 32917 31335 29895 28653 27575 26553 25467 24241 22872
700.5156 21427 20015 18755 17738 17007 16552 16335 16317 16498 16932 17715
705.8189 18961 20753 23113 25978 29198 32564 35855 38910 41685 44262 46804
711.1222 49464 52324 55372 58542 61766 65008 68249 71459 74567 77466 80039
716.4255 82191 83891 85178 86149 86908 87526 88011 88328 88447 88393 88251
721.7288 88122 88079 88141 88283 88444 88561 88590 88532 88432 88356 88353
727.0320 88420 88505 88533 88451 88263 88019 87791 87631 87551 87530 87529
732.3353 87518 87480 87423 87367 87337 87350 87401 87459 87478 87424 87300
737.6386 87152 87048 87044 87143 87298 87429 87472 87412 87291 87169 87089
742.9419 87054 87039 87030 87045 87133 87341 87670 88066 88435 88689 88775
748.2452 88695 88488 88217 87945 87730 87603 87557 87539 87468 87273 86931
753.5485 86487 86037 85686 85511 85522 85664 85841 85956 85950 85810 85572
758.8517 85298 85052 84872 84762 84694 84623 84509 84341 84146 83981 83901
764.1550 83918 83989 84036 83987 83809 83514 83140 82720 82273 81803 81321
769.4583 80842 80390 79977 79602 79250 78911 78583 78271 77982 77714 77451
774.7616 77173 76871 76555 76251 75987 75775 75601 75428 75222 74970 74685
780.0649 74394 74118 73855 73588 73308 73033 72797 72633 72539 72470 72358
785.3682 72146 71820 71413 70978 70562 70185 69847 69542 69268 69024 68799
790.6714 68558 68253 67845 67326 66731 66118 65537 64999 64471 63900 63243
795.9747 62494 61678 60830 59973 59102 58204 57268 56302 55327 54366 53441
801.2780 52572 51791 51137 50647 50345 50233 50298 50525 50901 51408 52018
806.5813 52674 53296 53788 54059 54049 53764 53303 52878 52783 53322 54692
811.8846 56892 59687 62671 65400 67529 68911 69609 69827 69815 69772 69817
817.1879 69986 70275 70664 71137 71672 72238 72791 73286 73690 73993 74207
822.4911 74354 74452 74508 74519 74486 74420 74346 74292 74274 74289 74318
827.7944 74336 74327 74290 74229 74153 74069 73984 73908 73854 73838 73868
833.0977 73945 74060 74195 74332 74450 74532 74570 74567 74538 74498 74461
838.4010 74427 74395 74362 74331 74306 74290 74276 74258 74233 74203 74176
843.7043 74150 74118 74062 73969 73844 73703 73572 73465 73380 73296 73184
849.0076 73019 72793 72517 72210 71899 71608 71356 71154 71001 70882 70771
854.3109 70636 70463 70264 70084 69985 70016 70187 70463 70778 71059 71253
859.6141 71342 71338 71267 71154 71016 70864 70703 70540 70381 70236 70111
864.9174 70009 69924 69841 69744 69616 69457 69281 69114 68981 68893 68842
870.2207 68800 68736 68626 68463 68257 68029 67800 67587 67398 67232 67082
875.5240 66941 66801 66661 66518 66370 66211 66036 65843 65639 65437 65253
880.8273 65093 64948 64800 64628 64417 64168 63892 63609 63335 63081 62850
886.1306 62642 62455 62291 62148 62023 61903 61769 61602 61388 61129 60838
891.4338 60530 60214 59888 59548 59194 58838 58502 58200 57939 57705 57479
896.7371 57241 56978 56683 56356 55995 55604 55192 54772 54357 53955 53568
902.0404 53190 52816 52444 52077 51719 51374 51037 50701 50349 49964 49536
907.3437 49069 48578 48089 47621 47184 46776 46388 46013 45651 45301 44955
912.6470 44603 44234 43851 43470 43115 42802 42529 42279 42029 41767 41496
917.9503 41233 40996 40796 40631 40492 40367 40250 40139 40036 39942 39856
923.2535 39772 39682 39585 39483 39384 39287 39187 39068 38922 38751 38576
928.5568 38425 38316 38250 38211 38178 38142 38115 38123 38196 38350 38585
933.8601 38893 39269 39719 40261 40912 41684 42570 43543 44556 45555 46476
939.1634 47265 47885 48328 48619 48811 48974 49177 49471 49880 50406 51029
944.4667 51723 52460 53218 53980 54733 55472 56196 56911 57629 58363 59121
949.7700 59902 60695 61483 62253 62995 63710 64402 65078 65743 66399 67050
955.0732 67695 68327 68939 69518 70059 70563 71041 71499 71941 72356 72731
960.3765 73057 73337 73591 73842 74105 74380 74650 74897 75107 75279 75424
965.6798 75554 75676 75787 75884 75967 76042 76121 76212 76317 76429 76538
970.9831 76632 76702 76745 76757 76742 76702 76644 76579 76524 76500 76525
976.2864 76612 76757 76947 77156 77358 77532 77665 77750 77787 77776 77721
981.5897 77636 77540 77456 77392 77341 77277 77172 77015 76823 76635 76493
986.8929 76423 76425 76475 76544 76609 76660 76693 76708 76693 76627 76478
992.1962 76220 75844 75367 74834 74298 73814 73427 73170 73054 73038 73008
997.4995 72786 72199 71195 69931 68775 68175 68455 69645 71451 73389 75006
1002.8028 76050 76530 76622 76541 76432 76344 76269 76183 76084 75975 75860
1008.1061 75733 75586 75422 75256 75107 74988 74898 74823 74745 74650 74529
1013.4094 74382 74210 74014 73791 73533 73233 72890 72519 72146 71803 71509
1018.7126 71267 71054 70834 70566 70214 69740 69111 68295 67265 65991 64438
1024.0160 62563 60349 57872 55375 53298 52197 52566 54621 58170 62639 67269
1029.3192 71366 74506 76591 77773 78312 78455 78374 78176 77931 77687 77473
1034.6226 77294 77135 76975 76803 76617 76426 76235 76044 75847 75642 75437
1039.9258 75246 75088 74973 74898 74846 74790 74710 74598 74465 74331 74214
1045.2291 74119 74040 73967 73893 73821 73757 73706 73664 73619 73561 73485
1050.5323 73395 73297 73198 73096 72986 72865 72739 72620 72519 72439 72372
1055.8357 72301 72215 72111 71994 71871 71742 71598 71426 71215 70965 70682
1061.1389 70378 70061 69735 69397 69040 68654 68226 67749 67223 66654 66057
1066.4423 65442 64815 64171 63503 62803 62071 61311 60527 59727 58923 58148
1071.7455 57473 57012 56914 57330 58368 60048 62277 64860 67549 70104 72347
1077.0488 74189 75618 76672 77410 77892 78174 78303 78326 78280 78195 78098
1082.3521 78002 77917 77840 77758 77660 77538 77394 77238 77078 76915 76743
1087.6554 76554 76347 76126 75898 75665 75431 75203 74990 74806 74652 74515
1092.9586 74369 74187 73952 73665 73337 72979 72594 72177 71711 71179 70570
1098.2620 69890 69174 68496 67957 67663 67689 68051 68700 69541 70458 71347
1103.5652 72134 72781 73276 73630 73867 74013 74094 74129 74130 74101 74047
1108.8685 73974 73891 73801 73704 73591 73449 73268 73040 72763 72443 72086
1114.1718 71703 71304 70898 70487 70065 69624 69154 68653 68124 67573 67005
1119.4751 66424 65829 65218 64585 63923 63217 62451 61608 60679 59666 58583
1124.7783 57460 56343 55298 54407 53763 53460 53572 54146 55184 56641 58424
1130.0817 60411 62464 64460 66305 67938 69333 70486 71414 72146 72722 73180
1135.3849 73554 73860 74104 74280 74384 74419 74397 74337 74257 74175 74099
1140.6882 74029 73959 73880 73786 73680 73568 73457 73352 73251 73152 73054
1145.9915 72962 72882 72819 72769 72726 72680 72628 72571 72511 72454 72399
1151.2948 72343 72278 72200 72108 72004 71893 71779 71661 71534 71394 71240
1156.5980 71077 70914 70758 70612 70471 70329 70177 70009 69823 69617 69391
1161.9014 69146 68881 68595 68290 67967 67627 67268 66885 66476 66044 65605
1167.2046 65192 64840 64578 64411 64310 64221 64083 63848 63498 63037 62487
1172.5079 61862 61169 60401 59549 58611 57592 56508 55387 54263 53187 52217
1177.8112 51416 50839 50524 50481 50690 51095 51617 52163 52640 52976 53132
1183.1145 53101 52912 52619 52297 52034 51927 52077 52571 53468 54778 56460
1188.4177 58420 60535 62669 64700 66539 68133 69467 70551 71407 72062 72544
1193.7211 72885 73123 73290 73411 73495 73539 73534 73474 73364 73220 73059
1199.0243 72898 72744 72592 72434 72260 72070 71871 71673 71484 71303 71123
1204.3276 70932 70726 70507 70283 70060 69840 69620 69396 69168 68940 68722
1209.6309 68518 68326 68138 67951 67767 67600 67472 67403 67404 67467 67572
1214.9342 67690 67791 67859 67888 67884 67860 67826 67787 67742 67685 67611
1220.2374 67515 67401 67273 67140 67008 66879 66749 66615 66475 66329 66184
1225.5408 66044 65911 65782 65650 65506 65345 65162 64957 64732 64493 64247
1230.8440 64002 63766 63541 63328 63119 62906 62680 62436 62174 61898 61615
1236.1473 61330 61046 60763 60480 60196 59908 59614 59314 59010 58705 58404
1241.4506 58112 57831 57557 57287 57015 56741 56464 56188 55914 55640 55368
1246.7539 55095 54822 54546 54265 53972 53664 53341 53012 52683 52362 52048
1252.0571 51736 51418 51094 50769 50456 50165 49899 49652 49412 49166 48906
1257.3605 48630 48339 48038 47726 47405 47073 46725 46354 45952 45513 45035
1262.6637 44519 43969 43391 42793 42191 41598 41026 40472 39919 39337 38699
1267.9670 37999 37255 36506 35788 35128 34535 34008 33542 33131 32770 32458
1273.2703 32199 32001 31870 31810 31812 31857 31922 31987 32033 32049 32024
1278.5736 31946 31804 31588 31297 30939 30529 30087 29632 29175 28724 28282
1283.8768 27851 27436 27042 26676 26344 26055 25817 25642 25537 25508 25560
1289.1802 25698 25927 26260 26704 27265 27940 28722 29606 30588 31664 32830
1294.4834 34078 35399 36781 38208 39661 41119 42560 43968 45332 46641 47889
1299.7867 49071 50187 51245 52260 53250 54230 55215 56221 57265 58366 59538
1305.0900 60787 62099 63447 64789 66079 67262 68290 69117 69717 70077 70201
1310.3933 70103 69793 69283 68581 67703 66683 65567 64405 63231 62052 60858
1315.6965 59623 58325 56943 55457 53840 52065 50124 48053 45939 43904 42060
1320.9999 40493 39252 38362 37833 37662 37831 38312 39073 40085 41324 42766
1326.3031 44388 46166 48080 50122 52291 54585 56994 59488 62016 64517 66932
1331.6064 69222 71363 73342 75140 76743 78147 79365 80427 81366 82209 82964
1336.9097 83631 84206 84691 85099 85450 85761 86045 86307 86543 86747 86919
1342.2130 87059 87168 87251 87308 87343 87357 87351 87331 87301 87264 87219
1347.5162 87161 87083 86979 86854 86719 86591 86489 86424 86404 86426 86483
1352.8196 86565 86664 86776 86900 87032 87162 87273 87351 87390 87392 87370
1358.1228 87337 87301 87260 87202 87118 87005 86866 86711 86549 86391 86249
1363.4261 86136 86054 85996 85945 85887 85807 85697 85552 85376 85177 84968
1368.7294 84761 84566 84387 84218 84050 83876 83690 83488 83267 83025 82767
1374.0327 82511 82279 82084 81918 81759 81588 81393 81174 80936 80692 80447
1379.3359 80202 79955 79702 79448 79200 78967 78747 78534 78317 78085 77837
1384.6393 77578 77313 77041 76759 76462 76158 75868 75605 75363 75120 74856
1389.9425 74559 74234 73893 73553 73220 72884 72528 72128 71668 71149 70599
1395.2458 70064 69570 69112 68671 68228 67767 67276 66766 66274 65838 65467
1400.5491 65137 64818 64489 64143 63785 63426 63071 62713 62338 61929 61485
1405.8524 61017 60527 60007 59445 58836 58186 57512 56832 56153 55474 54794
1411.1556 54115 53443 52778 52119 51467 50824 50198 49595 49015 48461 47939
1416.4590 47461 47040 46689 46426 46292 46324 46483 46652 46747 46776 46780
1421.7622 46808 46917 47172 47623 48250 48942 49582 50137 50653 51191 51792
1427.0656 52463 53191 53985 54902 56048 57494 59169 60874 62444 63874 65281
1432.3688 66781 68389 69988 71411 72569 73502 74353 75335 76614 78045 79213
1437.6721 79947 80388 80699 80960 81185 81357 81449 81446 81346 81158 80888
1442.9753 80529 80066 79485 78785 77991 77128 76202 75166 73912 72309 70326
1448.2787 68109 65868 63667 61408 58931 56135 53116 50254 48116 47161 47505
1453.5819 48990 51363 54416 58022 62125 66678 71448 75816 79059 81067 82273
1458.8853 83072 83655 84103 84456 84745 84996 85227 85449 85667 85887 86129
1464.1885 86420 86772 87152 87504 87806 88071 88321 88562 88788 88981 89128
1469.4918 89227 89283 89300 89268 89159 88952 88689 88491 88423 88433 88458
1474.7950 88458 88412 88317 88192 88075 87992 87942 87905 87860 87792 87686
1480.0984 87537 87350 87147 86956 86797 86672 86569 86466 86346 86200 86027
1485.4016 85827 85589 85304 84975 84633 84317 84035 83755 83411 82961 82444
1490.7050 81955 81513 81044 80466 79742 78882 77932 76946 75969 75060 74327
1496.0082 73929 73972 74429 75240 76392 77849 79427 80827 81839 82467 82844
1501.3115 83107 83328 83518 83652 83718 83728 83701 83650 83564 83390 83045
1506.6147 82573 82221 82062 82007 81997 82009 82026 82030 82004 81942 81850
1511.9181 81750 81665 81601 81546 81476 81374 81231 81032 80758 80390 79966
1517.2213 79593 79334 79159 79017 78866 78678 78426 78102 77767 77548 77458
1522.5247 77398 77320 77223 77122 77035 76974 76945 76939 76943 76949 76953
1527.8279 76956 76957 76954 76945 76929 76904 76868 76820 76756 76680 76601
1533.1312 76539 76510 76503 76489 76454 76395 76315 76217 76105 75979 75837
1538.4344 75680 75525 75412 75348 75278 75167 75027 74887 74768 74675 74602
1543.7378 74539 74485 74441 74401 74350 74274 74171 74043 73898 73742 73583
1549.0410 73439 73325 73247 73181 73099 72987 72848 72692 72533 72392 72296
1554.3444 72244 72196 72111 71978 71797 71568 71278 70915 70518 70359 70635
1559.6476 70880 70927 70869 70762 70626 70463 70274 70058 69817 69560 69305
1564.9509 69065 68842 68623 68396 68153 67894 67621 67339 67067 66830 66642
1570.2542 66475 66298 66090 65839 65532 65164 64744 64292 63827 63349 62831
1575.5575 62238 61581 60966 60460 60013 59564 59084 58567 58025 57478 56946
1580.8607 56446 55998 55631 55384 55311 55469 55922 56732 57956 59611 61658
1586.1641 63984 66417 68763 70847 72541 73785 74579 74971 75030 74830 74440
1591.4674 73913 73290 72592 71833 71016 70144 69226 68273 67292 66282 65240
1596.7706 64168 63089 62043 61075 60228 59536 59022 58700 58572 58631 58867
1602.0740 59276 59849 60563 61367 62200 63026 63844 64686 65580 66525 67480
1607.3772 68387 69209 69943 70602 71189 71687 72071 72335 72498 72580 72588
1612.6805 72515 72352 72108 71807 71470 71087 70598 69912 69059 68314 67907
1617.9838 67811 67924 68186 68558 68979 69368 69648 69788 69807 69762 69728
1623.2871 69761 69843 69906 69914 69869 69790 69691 69582 69472 69360 69242
1628.5903 69106 68947 68767 68566 68343 68091 67807 67494 67158 66806 66437
1633.8937 66043 65623 65213 64908 64761 64674 64530 64299 63999 63654 63283
1639.1969 62900 62510 62116 61723 61331 60933 60521 60088 59636 59173 58704
1644.5002 58228 57741 57241 56750 56324 55987 55680 55317 54868 54354 53804
1649.8035 53232 52637 52009 51333 50601 49870 49442 49736 50051 49846 49393
1655.1068 48874 48338 47786 47221 46648 46083 45538 45012 44494 43969 43435
1660.4100 42901 42378 41872 41376 40879 40374 39866 39353 38818 38236 37594
1665.7134 36902 36195 35507 34855 34230 33610 32987 32403 31911 31496 31093
1671.0166 30641 30131 29598 29085 28616 28195 27831 27555 27419 27413 27412
1676.3199 27310 27109 26857 26600 26382 26251 26255 26407 26653 26893 27044
1681.6232 27075 26998 26865 26876 27640 29956 32687 34087 34568 34828 35159
1686.9265 35667 36396 37363 38549 39890 41292 42671 43979 45208 46366 47454
1692.2297 48461 49361 50131 50772 51338 51988 53046 54805 56869 58360 59093
1697.5331 59394 59528 59639 59874 60560 62152 64096 65134 65416 65486 65586
1702.8363 65802 66166 66682 67317 68030 68820 69729 70760 71814 72757 73529
1708.1396 74160 74728 75312 75956 76646 77321 77916 78404 78798 79128 79431
1713.4429 79759 80170 80688 81256 81769 82165 82467 82771 83219 83896 84647
1718.7462 85255 85705 86085 86463 86862 87284 87721 88172 88643 89138 89642
1724.0494 90121 90546 90906 91217 91504 91785 92066 92334 92575 92775 92931
1729.3528 93048 93147 93247 93356 93466 93560 93610 93575 93394 93072 92824
1734.6560 92831 92989 93170 93329 93462 93573 93662 93716 93711 93618 93443
1739.9594 93258 93139 93099 93101 93095 93040 92908 92707 92484 92291 92141
1745.2626 92020 91905 91779 91633 91466 91292 91138 91027 90964 90938 90935
1750.5659 90938 90942 90952 90977 91021 91077 91141 91203 91259 91303 91334
1755.8691 91353 91365 91373 91375 91369 91351 91323 91287 91242 91185 91109
1761.1725 91010 90902 90806 90735 90677 90615 90535 90438 90334 90236 90150
1766.4757 90074 89995 89902 89801 89710 89643 89595 89545 89467 89331 89115
1771.7791 88850 88646 88585 88627 88695 88740 88743 88697 88613 88513 88419
1777.0823 88336 88259 88172 88066 87939 87801 87672 87567 87489 87426 87361
1782.3856 87283 87188 87078 86961 86848 86749 86663 86582 86499 86417 86344
1787.6888 86291 86261 86250 86243 86224 86188 86136 86092 86087 86148 86261
1792.9922 86373 86446 86476 86481 86483 86500 86540 86594 86645 86682 86707
1798.2954 86730 86762 86808 86865 86925 86993 87079 87189 87315 87435 87523
1803.5988 87572 87593 87604 87623 87655 87694 87726 87739 87727 87695 87655
1808.9020 87619 87599 87601 87629 87674 87721 87756 87770 87769 87760 87751
1814.2053 87751 87761 87778 87794 87800 87788 87756 87705 87646 87588 87537
1819.5085 87494 87458 87426 87395 87361 87318 87258 87177 87083 86998 86960
1824.8119 87011 87154 87338 87490 87576 87600 87584 87560 87565 87637 87782
1830.1151 87949 88079 88153 88185 88197 88207 88223 88245 88262 88265 88249
1835.4185 88223 88207 88222 88281 88377 88481 88564 88606 88607 88575 88526
1840.7217 88471 88418 88370 88331 88306 88302 88324 88358 88381 88380 88365
1846.0250 88357 88372 88418 88490 88571 88634 88662 88654 88620 88569 88514
1851.3282 88467 88434 88418 88414 88406 88382 88336 88273 88212 88170 88158
1856.6316 88171 88196 88215 88217 88203 88180 88160 88144 88127 88099 88053
1861.9348 87986 87910 87839 87789 87768 87771 87783 87783 87754 87690 87605
1867.2382 87530 87502 87543 87633 87706 87700 87604 87455 87307 87206 87173
1872.5414 87204 87265 87311 87303 87232 87114 86983 86874 86810 86792 86809
1877.8447 86844 86883 86917 86944 86961 86963 86943 86893 86818 86730 86649
1883.1479 86597 86587 86618 86673 86729 86759 86748 86696 86621 86548 86505
1888.4513 86509 86557 86615 86638 86601 86520 86428 86354 86311 86296 86298
1893.7545 86308 86324 86351 86388 86422 86437 86420 86368 86290 86202 86121
1899.0579 86067 86054 86083 86139 86192 86207 86170 86094 86017 85976 85980
1904.3611 86000 85983 85881 85682 85418 85147 84933 84818 84811 84886 84996
1909.6644 85083 85100 85024 84865 84657 84444 84266 84149 84099 84099 84123
1914.9677 84147 84164 84186 84240 84349 84512 84687 84813 84857 84842 84810
1920.2710 84799 84819 84860 84902 84933 84960 85004 85077 85171 85269 85359
1925.5742 85443 85527 85612 85686 85727 85726 85692 85654 85646 85678 85730
1930.8776 85765 85748 85675 85576 85502 85498 85580 85725 85888 86020 86089
1936.1808 86086 86031 85964 85931 85966 86078 86243 86413 86537 86588 86565
1941.4841 86498 86442 86452 86554 86729 86939 87146 87314 87411 87416 87334
1946.7874 87204 87070 86951 86832 86682 86491 86300 86191 86245 86482 86844
1952.0907 87210 87475 87605 87653 87704 87811 87943 88018 87964 87781 87547
1957.3939 87362 87282 87291 87323 87319 87274 87225 87220 87272 87356 87443
1962.6973 87524 87615 87723 87819 87838 87712 87421 87020 86632 86391 86359
1968.0005 86488 86651 86715 86604 86330 85982 85698 85595 85718 86012 86357
1973.3038 86622 86721 86645 86448 86209 86010 85927 86028 86360 86912 87594
1978.6071 88251 88728 88942 88905 88698 88417 88134 87884 87684 87545 87474
1983.9104 87455 87437 87355 87165 86881 86570 86318 86181 86163 86229 86346
1989.2136 86505 86720 86983 87250 87447 87515 87473 87409 87402 87457 87503
1994.5170 87460 87303 87090 86933 86925 87084 87346 87618 87834 87983 88101
1999.8202 88221 88344 88433 88435 88320 88103 87838 87599 87439 87364 87334
2005.1235 87285 87180 87036 86920 86906 87016 87204 87382 87482 87497 87478
2010.4268 87494 87580 87732 87914 88094 88255 88383 88455 88431 88275 87993
2015.7301 87648 87344 87184 87213 87395 87639 87846 87946 87917 87781 87589
2021.0333 87418 87348 87448 87738 88171 88629 88963 89051 88858 88455 87991
2026.3367 87624 87448 87461 87563 87616 87516 87245 86877 86534 86319 86268
2031.6399 86353 86511 86690 86875 87073 87271 87427 87484 87416 87253 87063
2036.9432 86907 86802 86723 86643 86571 86560 86667 86905 87214 87496 87674
2042.2465 87750 87791 87870 88010 88169 88274 88285 88218 88128 88058 87992
2047.5498 87869 87624 87255 86839 86503 86353 86415 86632 86907 87152 87320
2052.8530 87412 87456 87481 87489 87460 87371 87217 87028 86849 86721 86648
2058.1563 86600 86538 86443 86328 86232 86180 86162 86137 86063 85933 85787
2063.4597 85690 85694 85805 85970 86106 86143 86056 85877 85671 85514 85461
2068.7629 85528 85680 85849 85964 85982 85902 85759 85593 85432 85281 85134
2074.0662 84986 84848 84739 84686 84707 84800 84938 85067 85122 85058 84875
2079.3694 84629 84407 84283 84278 84357 84455 84522 84549 84561 84580 84602
2084.6729 84599 84540 84420 84266 84118 83999 83905 83817 83720 83620 83543
2089.9761 83513 83537 83600 83676 83743 83792 83824 83846 83862 83881 83913
2095.2793 83977 84087 84245 84435 84625 84783 84890 84948 84969 84968 84952
2100.5825 84921 84881 84849 84847 84887 84956 85021 85048 85030 84991 84970
2105.8860 84991 85037 85058 84996 84831 84596 84365 84218 84204 84322 84530
2111.1892 84765 84968 85104 85167 85167 85123 85055 84978 84907 84849 84808
2116.4924 84784 84772 84767 84770 84785 84817 84860 84899 84913 84890 84838
2121.7957 84779 84743 84742 84767 84796 84810 84808 84806 84824 84862 84900
2127.0991 84907 84869 84805 84762 84796 84930 85146 85380 85558 85627 85581
2132.4023 85456 85307 85179 85096 85061 85068 85120 85218 85346 85464 85513
2137.7056 85451 85284 85079 84937 84936 85081 85296 85462 85484 85352 85149
2143.0088 85005 85025 85237 85587 85976 86314 86560 86713 86797 86826 86804
2148.3123 86729 86606 86452 86281 86104 85925 85747 85571 85395 85209 85002
2153.6155 84787 84614 84567 84721 85098 85640 86222 86712 87017 87108 86991
2158.9187 86669 86144 85457 84727 84121 83778 83744 83953 84268 84561 84768
2164.2219 84901 84992 85040 85004 84843 84573 84282 84078 84030 84123 84283
2169.5254 84425 84505 84533 84543 84557 84567 84538 84441 84270 84047 83806
2174.8286 83580 83388 83241 83151 83138 83235 83472 83853 84328 84793 85121
2180.1318 85210 85039 84672 84220 83787 83431 83175 83027 83003 83113 83334
2185.4351 83600 83814 83897 83836 83688 83551 83507 83588 83764 83975 84160
2190.7385 84282 84333 84323 84266 84177 84072 83969 83881 83810 83747 83681
2196.0417 83612 83564 83576 83676 83857 84068 84237 84304 84256 84139 84021
2201.3450 83960 83974 84039 84112 84153 84142 84073 83951 83792 83622 83479
2206.6482 83395 83381 83413 83446 83437 83367 83253 83132 83041 82997 82998
2211.9517 83025 83063 83105 83156 83230 83338 83475 83613 83706 83709 83599
2217.2549 83393 83149 82939 82819 82804 82868 82961 83036 83077 83095 83125
2222.5581 83197 83318 83471 83617 83716 83741 83687 83574 83434 83303 83208
2227.8613 83153 83122 83081 83004 82886 82759 82672 82667 82748 82874 82980
2233.1648 83005 82926 82757 82538 82312 82111 81956 81859 81828 81859 81932
2238.4680 82021 82101 82157 82185 82184 82145 82062 81934 81782 81640 81547
2243.7712 81524 81569 81654 81747 81818 81855 81861 81844 81816 81786 81763
2249.0745 81754 81766 81800 81849 81895 81921 81912 81870 81814 81776 81782
2254.3779 81842 81934 82017 82043 81989 81872 81741 81650 81631 81677 81746
2259.6812 81782 81752 81651 81508 81363 81255 81207 81229 81314 81444 81588
2264.9844 81710 81783 81793 81749 81670 81571 81464 81353 81243 81150 81090
2270.2876 81073 81092 81123 81144 81142 81127 81118 81134 81177 81233 81281
2275.5911 81306 81305 81287 81263 81237 81207 81168 81117 81059 80998 80941
2280.8943 80885 80825 80754 80666 80566 80468 80393 80362 80386 80458 80550
2286.1975 80630 80676 80680 80656 80620 80586 80550 80505 80441 80364 80290
2291.5007 80236 80218 80236 80281 80340 80400 80455 80497 80519 80516 80482
2296.8042 80421 80345 80270 80210 80172 80152 80144 80139 80136 80139 80151
2302.1074 80175 80207 80235 80250 80248 80232 80211 80197 80201 80222 80252
2307.4106 80279 80294 80293 80281 80270 80268 80282 80314 80362 80416 80460
2312.7139 80474 80447 80387 80319 80281 80302 80379 80480 80554 80556 80472
2318.0173 80322 80154 80014 79930 79907 79933 79991 80063 80136 80201 80253
2323.3206 80294 80336 80388 80451 80511 80546 80537 80474 80369 80248 80151
2328.6238 80112 80147 80248 80378 80483 80516 80457 80326 80175 80061 80018
2333.9270 80047 80119 80198 80256 80281 80275 80246 80204 80159 80120 80094
2339.2305 80088 80099 80121 80147 80181 80233 80299 80356 80360 80274 80100
2344.5337 79887 79704 79599 79563 79544 79490 79382 79240 79097 78986 78934
2349.8369 78962 79082 79286 79544 79807 80027 80173 80239 80241 80218 80215
2355.1401 80260 80354 80467 80562 80616 80634 80646 80685 80771 80902 81053
2360.4436 81190 81277 81285 81193 81004 80749 80486 80287 80206 80251 80380
2365.7468 80514 80576 80518 80348 80110 79861 79645 79478 79357 79264 79186
2371.0500 79113 79040 78966 78888 78805 78713 78612 78507 78407 78322 78263
2376.3533 78229 78213 78199 78172 78120 78043 77951 77857 77775 77714 77673
2381.6567 77645 77621 77595 77563 77525 77479 77424 77355 77273 77184 77100
2386.9600 77036 77002 76999 77019 77048 77072 77078 77060 77021 76968 76911
2392.2632 76861 76826 76806 76796 76784 76760 76719 76666 76612 76570 76547
2397.5664 76543 76548 76554 76549 76530 76502 76474 76460 76468 76497 76534
2402.8699 76559 76553 76507 76425 76326 76233 76163 76122 76104 76100 76096
2408.1731 76086 76069 76049 76034 76029 76034 76043 76048 76040 76015 75976
2413.4763 75927 75875 75828 75789 75762 75747 75742 75743 75746 75746 75741
2418.7795 75735 75728 75723 75724 75730 75742 75754 75756 75737 75692 75627
2424.0830 75558 75501 75468 75457 75457 75454 75440 75418 75396 75381 75375
2429.3862 75377 75383 75389 75390 75381 75356 75315 75263 75208 75158 75113
2434.6895 75073 75038 75016 75015 75039 75079 75116 75130 75114 75076 75033
2439.9927 75001 74986 74979 74972 74956 74934 74914 74904 74908 74920 74930
2445.2961 74930 74911 74872 74817 74753 74689 74629 74572 74513 74449 74379
2450.5994 74310 74252 74216 74202 74201 74199 74184 74152 74111 74073 74045
2455.9026 74022 73995 73952 73892 73827 73773 73740 73727 73718 73695 73650
2461.2058 73585 73513 73448 73401 73373 73359 73349 73332 73298 73243 73172
2466.5093 73097 73035 72997 72984 72990 73001 73005 72997 72976 72945 72904
2471.8125 72857 72805 72753 72709 72678 72664 72662 72670 72683 72698 72716
2477.1157 72732 72737 72720 72671 72594 72505 72425 72370 72343 72336 72336
2482.4189 72338 72347 72370 72402 72424 72414 72358 72266 72163 72072 72007
2487.7224 71959 71917 71872 71835 71820 71834 71868 71896 71895 71855 71785
2493.0256 71706 71638 71591 71558 71528 71486 71423 71338 71236 71134 71046
2498.3289 70986 70960 70962 70977 70992 71000 71000 70999 70999 70999 70991
2503.6321 70967 70922 70861 70792 70727 70672 70631 70602 70580 70561 70544
2508.9355 70532 70526 70528 70532 70531 70513 70471 70407 70327 70244 70170
2514.2388 70112 70070 70042 70020 69995 69957 69896 69813 69715 69620 69548
2519.5420 69511 69510 69533 69559 69570 69550 69497 69421 69339 69271 69230
2524.8452 69213 69205 69182 69133 69056 68966 68879 68803 68737 68677 68623
2530.1487 68579 68554 68548 68553 68557 68548 68522 68482 68433 68380 68322
2535.4519 68259 68194 68129 68070 68020 67978 67937 67890 67829 67754 67673
2540.7551 67601 67553 67536 67541 67549 67538 67501 67444 67388 67351 67340
2546.0583 67347 67353 67341 67307 67257 67204 67165 67145 67142 67145 67146
2551.3618 67142 67138 67138 67144 67153 67157 67154 67150 67157 67185 67232
2556.6650 67282 67316 67317 67289 67252 67236 67262 67337 67448 67573 67690
2561.9683 67786 67856 67905 67939 67963 67983 68009 68054 68127 68234 68371
2567.2715 68525 68682 68827 68955 69064 69159 69246 69332 69422 69523 69641
2572.5750 69777 69931 70098 70274 70455 70639 70823 71004 71179 71350 71521
2577.8782 71700 71890 72091 72292 72475 72623 72724 72778 72794 72790 72786
2583.1814 72802 72847 72923 73019 73114 73189 73228 73233 73213 73186 73164
2588.4849 73146 73126 73093 73044 72986 72925 72865 72800 72721 72627 72524
2593.7881 72423 72332 72249 72164 72069 71965 71862 71773 71705 71656 71618
2599.0913 71581 71540 71493 71437 71371 71300 71233 71184 71165 71172 71194
2604.3945 71211 71214 71204 71196 71201 71225 71268 71322 71387 71465 71561
2609.6980 71676 71808 71944 72070 72175 72253 72303 72334 72356 72382 72421
2615.0012 72474 72538 72605 72667 72717 72753 72773 72779 72776 72768 72760
2620.3044 72752 72740 72720 72691 72654 72618 72590 72572 72557 72538 72508
2625.6077 72465 72412 72352 72285 72211 72130 72047 71966 71891 71821 71755
2630.9111 71691 71628 71568 71509 71447 71377 71300 71224 71158 71111 71081
2636.2144 71060 71037 71006 70969 70932 70903 70884 70875 70872 70875 70877
2641.5176 70875 70863 70837 70799 70756 70719 70695 70685 70685 70692 70703
2646.8208 70714 70725 70733 70733 70722 70702 70677 70649 70622 70594 70566
2652.1243 70540 70515 70491 70467 70436 70395 70346 70296 70253 70222 70203
2657.4275 70191 70179 70162 70140 70117 70097 70084 70082 70091 70110 70133
2662.7307 70153 70165 70164 70150 70125 70095 70063 70034 70013 70004 70007
2668.0339 70023 70044 70065 70077 70081 70082 70088 70107 70143 70195 70254
2673.3374 70311 70358 70389 70406 70413 70418 70431 70457 70499 70555 70617
2678.6406 70679 70740 70801 70866 70940 71021 71104 71184 71261 71334 71408
2683.9438 71486 71570 71659 71751 71845 71941 72039 72136 72235 72336 72445
2689.2471 72566 72701 72846 72994 73136 73265 73383 73498 73622 73763 73926
2694.5505 74105 74288 74463 74624 74770 74909 75050 75196 75347 75499 75645
2699.8538 75782 75909 76024 76127 76218 76299 76371 76438 76504 76569 76632
2705.1570 76690 76740 76778 76804 76814 76810 76793 76765 76731 76692 76649
2710.4602 76602 76550 76496 76441 76385 76333 76285 76243 76208 76176 76141
2715.7637 76094 76030 75952 75868 75791 75729 75684 75647 75610 75567 75520
2721.0669 75475 75436 75404 75374 75343 75310 75282 75267 75271 75295 75333
2726.3701 75373 75407 75430 75443 75453 75468 75493 75525 75562 75597 75629
2731.6733 75662 75703 75757 75826 75902 75976 76037 76079 76105 76122 76141
2736.9768 76171 76209 76251 76284 76298 76288 76260 76223 76188 76165 76156
2742.2800 76155 76156 76151 76136 76111 76082 76050 76015 75975 75922 75854
2747.5833 75771 75679 75590 75513 75454 75417 75395 75380 75361 75332 75290
2752.8865 75239 75189 75149 75124 75114 75112 75107 75093 75065 75025 74978
2758.1899 74930 74886 74850 74825 74812 74807 74804 74795 74774 74739 74697
2763.4932 74656 74624 74604 74597 74597 74598 74599 74599 74597 74593 74584
2768.7964 74565 74536 74495 74446 74395 74345 74297 74252 74206 74157 74103
2774.0996 74046 73992 73945 73906 73873 73839 73799 73750 73695 73640 73593
2779.4031 73556 73527 73502 73476 73447 73415 73383 73356 73336 73329 73336
2784.7063 73354 73378 73396 73399 73381 73340 73282 73214 73147 73087 73034
2790.0095 72989 72946 72901 72853 72801 72747 72691 72634 72572 72507 72438
2795.3127 72366 72290 72211 72126 72036 71946 71862 71792 71739 71700 71671
2800.6162 71646 71624 71599 71568 71526 71469 71399 71322 71249 71188 71142
2805.9194 71108 71075 71037 70988 70930 70866 70799 70731 70664 70599 70541
2811.2227 70491 70451 70415 70379 70336 70284 70226 70167 70112 70068 70038
2816.5259 70023 70020 70025 70032 70038 70040 70037 70027 70012 69990 69963
2821.8293 69935 69908 69885 69868 69858 69853 69854 69860 69869 69880 69892
2827.1326 69905 69921 69939 69960 69983 70006 70027 70043 70056 70067 70079
2832.4358 70098 70128 70172 70230 70300 70372 70442 70501 70550 70591 70630
2837.7390 70672 70722 70781 70850 70929 71020 71122 71233 71346 71451 71543
2843.0425 71623 71698 71783 71888 72015 72156 72300 72431 72544 72641 72736
2848.3457 72841 72965 73108 73262 73414 73554 73678 73791 73900 74013 74131
2853.6489 74251 74360 74448 74507 74536 74541 74535 74525 74516 74505 74487
2858.9521 74456 74411 74350 74278 74199 74119 74044 73982 73933 73896 73862
2864.2556 73820 73764 73697 73625 73557 73500 73453 73412 73370 73325 73276
2869.5588 73225 73179 73143 73122 73115 73118 73127 73136 73144 73153 73166
2874.8621 73183 73200 73214 73218 73213 73203 73195 73193 73199 73210 73222
2880.1653 73234 73247 73263 73283 73309 73335 73359 73378 73395 73413 73438
2885.4688 73475 73525 73586 73651 73715 73773 73826 73881 73943 74014 74088
2890.7720 74160 74223 74277 74328 74385 74455 74538 74632 74731 74832 74932
2896.0752 75027 75114 75189 75251 75306 75358 75415 75477 75542 75606 75664
2901.3784 75718 75773 75832 75898 75969 76041 76112 76183 76259 76347 76444
2906.6819 76544 76633 76698 76736 76752 76761 76780 76818 76877 76947 77018
2911.9851 77086 77151 77221 77301 77392 77489 77583 77672 77757 77845 77945
2917.2883 78058 78182 78308 78425 78524 78598 78649 78684 78711 78740 78775
2922.5916 78814 78852 78883 78907 78922 78930 78928 78908 78865 78799 78719
2927.8950 78638 78568 78515 78473 78431 78377 78303 78212 78111 78009 77918
2933.1982 77843 77783 77732 77676 77603 77504 77380 77238 77092 76955 76832
2938.5015 76724 76626 76537 76454 76380 76316 76263 76216 76175 76135 76094
2943.8047 76053 76009 75962 75914 75868 75834 75820 75828 75853 75886 75915
2949.1082 75936 75951 75966 75987 76009 76022 76017 75989 75944 75896 75858
2954.4114 75838 75837 75856 75889 75934 75983 76025 76048 76044 76013 75968
2959.7146 75924 75898 75893 75903 75914 75912 75893 75862 75830 75804 75781
2965.0178 75755 75717 75668 75617 75576 75556 75553 75558 75555 75540 75514
2970.3213 75486 75464 75446 75427 75400 75367 75337 75321 75321 75332 75343
2975.6245 75342 75332 75321 75323 75342 75370 75388 75378 75334 75266 75196
2980.9277 75144 75124 75134 75167 75211 75257 75304 75349 75390 75421 75441
2986.2310 75449 75449 75450 75457 75470 75483 75490 75488 75479 75469 75463
2991.5344 75460 75452 75429 75386 75326 75262 75207 75174 75164 75172 75186
2996.8376 75197 75204 75210 75220 75235 75250 75259 75260 75255 75254 75268
3002.1409 75302 75352 75411 75469 75515 75545 75556 75549 75528 75501 75475
3007.4441 75459 75458 75474 75504 75548 75598 75650 75697 75737 75770 75802
3012.7476 75841 75887 75938 75982 76011 76022 76016 76006 76001 76012 76042
3018.0508 76088 76143 76198 76245 76283 76312 76340 76370 76406 76448 76494
3023.3540 76544 76599 76660 76724 76787 76842 76883 76911 76932 76954 76984
3028.6572 77026 77077 77128 77171 77199 77213 77218 77226 77247 77285 77338
3033.9607 77399 77460 77517 77566 77610 77653 77698 77752 77815 77885 77959
3039.2639 78031 78099 78164 78229 78293 78352 78394 78412 78403 78371 78331
3044.5671 78294 78270 78265 78278 78308 78349 78396 78440 78472 78488 78489
3049.8704 78479 78459 78430 78390 78341 78283 78223 78163 78104 78040 77968
3055.1738 77886 77795 77701 77602 77497 77381 77250 77111 76974 76851 76750
3060.4771 76671 76607 76548 76490 76433 76384 76347 76326 76313 76295 76258
3065.7803 76189 76083 75938 75758 75553 75335 75121 74931 74786 74698 74672
3071.0835 74707 74800 74958 75199 75544 76001 76560 77185 77827 78433 78964
3076.3870 79401 79749 80027 80260 80471 80667 80848 81005 81128 81215 81274
3081.6902 81316 81352 81389 81427 81466 81502 81535 81565 81592 81617 81637
3086.9934 81652 81658 81653 81640 81625 81618 81628 81653 81687 81718 81743
3092.2966 81766 81796 81841 81902 81973 82046 82116 82186 82259 82335 82404
3097.6001 82455 82481 82486 82483 82492 82527 82591 82672 82752 82816 82855
3102.9033 82875 82888 82905 82934 82971 83010 83045 83072 83096 83125 83161
3108.2065 83203 83243 83274 83295 83309 83326 83356 83405 83469 83542 83611
3113.5098 83666 83699 83707 83696 83676 83663 83670 83702 83758 83826 83893
3118.8132 83948 83986 84010 84029 84052 84087 84136 84199 84269 84338 84398
3124.1165 84445 84480 84506 84532 84562 84603 84652 84704 84753 84790 84809
3129.4197 84809 84797 84783 84779 84794 84831 84883 84942 84997 85044 85086
3134.7229 85128 85177 85236 85300 85360 85407 85435 85443 85434 85410 85378
3140.0264 85346 85323 85321 85348 85406 85485 85571 85648 85703 85730 85733
3145.3296 85721 85702 85686 85682 85692 85719 85764 85822 85887 85947 85986
3150.6328 85994 85974 85940 85916 85922 85968 86041 86120 86182 86214 86217
3155.9360 86203 86187 86179 86184 86206 86244 86294 86349 86396 86427 86436
3161.2395 86424 86397 86367 86347 86346 86364 86397 86430 86452 86458 86454
3166.5427 86456 86478 86525 86589 86655 86711 86753 86788 86828 86880 86945
3171.8459 87016 87080 87127 87146 87132 87087 87023 86959 86915 86908 86938
3177.1492 86993 87054 87103 87132 87147 87160 87179 87207 87238 87264 87277
3182.4526 87276 87269 87267 87280 87315 87367 87425 87476 87506 87514 87502
3187.7559 87480 87458 87444 87441 87455 87487 87536 87599 87668 87736 87795
3193.0591 87843 87877 87897 87902 87896 87880 87862 87845 87831 87815 87793
3198.3623 87767 87745 87744 87772 87829 87899 87962 88002 88019 88023 88029
3203.6658 88043 88062 88078 88083 88084 88088 88106 88137 88172 88200 88216
3208.9690 88226 88240 88269 88311 88358 88394 88411 88410 88401 88402 88425
3214.2722 88474 88538 88600 88643 88655 88639 88606 88574 88558 88571 88615
3219.5754 88680 88752 88814 88853 88865 88857 88842 88834 88840 88861 88890
3224.8789 88916 88930 88928 88912 88890 88876 88884 88922 88984 89056 89115
3230.1821 89148 89149 89129 89105 89087 89077 89067 89050 89025 89001 88990
3235.4854 89001 89032 89074 89115 89145 89164 89171 89171 89167 89166 89176
3240.7886 89203 89252 89317 89388 89449 89489 89505 89501 89486 89471 89465
3246.0920 89470 89485 89507 89530 89552 89575 89600 89629 89659 89683 89697
3251.3953 89703 89710 89727 89756 89786 89800 89788 89751 89708 89680 89684
3256.6985 89717 89765 89809 89833 89835 89826 89820 89833 89874 89940 90019
3262.0017 90090 90129 90123 90074 90001 89937 89910 89935 90006 90098 90185
3267.3052 90247 90276 90281 90272 90258 90241 90220 90196 90172 90158 90162
3272.6084 90182 90211 90233 90237 90222 90199 90187 90200 90245 90309 90372
3277.9116 90407 90401 90355 90290 90234 90211 90231 90282 90342 90387 90403
3283.2148 90393 90369 90346 90330 90319 90305 90281 90251 90225 90219 90244
3288.5183 90304 90386 90473 90542 90579 90580 90558 90530 90514 90518 90539
3293.8215 90562 90571 90557 90517 90460 90400 90351 90326 90327 90346 90371
3299.1248 90388 90393 90396 90412 90457 90531 90620 90699 90746 90755 90736
3304.4280 90708 90686 90672 90659 90638 90603 90558 90516 90488 90483 90500
3309.7314 90531 90565 90593 90608 90612 90607 90597 90585 90574 90569 90576
3315.0347 90596 90623 90647 90659 90660 90662 90686 90740 90811 90873 90898
3320.3379 90877 90833 90802 90817 90884 90979 91059 91084 91038 90935 90807
3325.6411 90696 90630 90622 90665 90737 90812 90869 90901 90912 90914 90916
3330.9446 90922 90935 90959 91007 91089 91210 91358 91503 91613 91664 91648
3336.2478 91575 91466 91347 91239 91163 91129 91143 91195 91265 91326 91356
3341.5510 91346 91305 91255 91222 91225 91267 91338 91420 91496 91559 91612
3346.8542 91661 91709 91747 91759 91731 91660 91559 91449 91351 91278 91231
3352.1577 91201 91181 91166 91159 91167 91199 91256 91334 91419 91495 91546
3357.4609 91563 91541 91485 91404 91312 91225 91161 91126 91120 91136 91167
3362.7642 91211 91276 91366 91476 91586 91666 91692 91657 91573 91466 91359
3368.0674 91267 91191 91128 91075 91037 91018 91025 91058 91112 91180 91256
3373.3708 91332 91401 91454 91481 91477 91445 91397 91348 91315 91303 91306
3378.6741 91312 91306 91281 91242 91203 91174 91160 91158 91156 91146 91125
3383.9773 91098 91077 91072 91089 91126 91179 91241 91305 91366 91420 91463
3389.2805 91490 91494 91470 91415 91335 91241 91149 91076 91035 91029 91054
3394.5840 91104 91172 91249 91326 91391 91432 91440 91413 91358 91285 91211
3399.8872 91152 91119 91113 91128 91152 91177 91198 91218 91239 91263 91289
3405.1904 91315 91341 91367 91393 91411 91412 91387 91339 91281 91232 91210
3410.4937 91220 91253 91291 91319 91329 91322 91303 91279 91255 91236 91230
3415.7971 91244 91278 91326 91372 91400 91397 91362 91305 91243 91197 91180
3421.1003 91196 91239 91294 91348 91390 91414 91421 91410 91386 91354 91319
3426.4036 91290 91270 91259 91252 91244 91233 91221 91211 91205 91201 91193
3431.7068 91178 91156 91131 91110 91099 91104 91122 91152 91187 91221 91246
3437.0103 91262 91271 91278 91288 91300 91307 91298 91268 91218 91159 91104
3442.3135 91069 91063 91085 91126 91172 91207 91218 91202 91165 91129 91114
3447.6167 91128 91162 91197 91215 91212 91196 91180 91178 91192 91214 91232
3452.9199 91232 91209 91168 91120 91083 91070 91085 91121 91160 91186 91189
3458.2234 91171 91141 91110 91082 91053 91018 90980 90948 90935 90948 90981
3463.5266 91020 91048 91059 91058 91056 91063 91083 91112 91140 91160 91170
3468.8298 91173 91173 91173 91176 91184 91194 91203 91203 91189 91158 91114
3474.1331 91068 91027 91001 90992 90997 91012 91027 91031 91016 90980 90934
3479.4365 90895 90882 90901 90946 90995 91025 91024 90996 90958 90930 90926
3484.7397 90947 90985 91025 91054 91068 91075 91085 91106 91134 91159 91168
3490.0430 91154 91123 91086 91051 91023 90999 90978 90961 90957 90972 91002
3495.3462 91033 91048 91038 91015 91003 91025 91081 91150 91199 91201 91152
3500.6497 91073 90998 90956 90954 90978 91002 91008 90994 90972 90954 90941
3505.9529 90930 90911 90883 90847 90812 90789 90789 90815 90861 90916 90966
3511.2561 91004 91027 91038 91046 91057 91070 91076 91066 91035 90987 90936
3516.5593 90901 90893 90913 90948 90979 90989 90969 90922 90862 90807 90773
3521.8628 90770 90794 90831 90862 90872 90861 90836 90810 90791 90786 90797
3527.1660 90822 90855 90885 90902 90899 90874 90839 90809 90799 90817 90857
3532.4692 90904 90939 90950 90935 90900 90859 90824 90801 90792 90793 90803
3537.7725 90823 90854 90895 90941 90979 90997 90989 90956 90907 90856 90813
3543.0759 90782 90759 90741 90724 90710 90706 90716 90743 90781 90822 90856
3548.3792 90875 90874 90851 90808 90751 90690 90642 90620 90631 90668 90714
3553.6824 90753 90771 90764 90739 90710 90697 90712 90757 90818 90876 90913
3558.9856 90921 90901 90863 90816 90767 90715 90659 90599 90540 90486 90440
3564.2891 90399 90353 90295 90231 90187 90205 90305 90456 90604 90707 90759
3569.5923 90775 90778 90789 90816 90855 90895 90926 90945 90951 90946 90930
3574.8955 90904 90871 90836 90805 90780 90757 90734 90711 90689 90672 90656
3580.1990 90642 90629 90621 90623 90638 90659 90674 90670 90643 90598 90543
3585.5022 90488 90444 90418 90421 90456 90514 90577 90627 90655 90663 90665
3590.8054 90675 90705 90756 90817 90866 90880 90849 90779 90688 90594 90511
3596.1086 90444 90393 90361 90352 90370 90416 90482 90556 90622 90669 90694
3601.4121 90702 90698 90684 90658 90618 90566 90511 90464 90433 90425 90432
3606.7153 90446 90459 90473 90500 90541 90582 90601 90586 90538 90467 90385
3612.0186 90303 90233 90182 90158 90166 90203 90261 90322 90363 90371 90344
3617.3218 90303 90285 90323 90422 90539 90617 90632 90601 90560 90538 90545
3622.6252 90573 90595 90585 90521 90405 90257 90115 90015 89980 90018 90118
3627.9285 90251 90359 90388 90366 90360 90386 90429 90468 90491 90494 90485
3633.2317 90480 90490 90511 90528 90526 90503 90465 90425 90401 90406 90442
3638.5349 90494 90539 90555 90537 90490 90435 90398 90394 90414 90432 90422
3643.8384 90370 90282 90176 90074 90002 89980 90006 90046 90062 90052 90061
3649.1416 90147 90338 90570 90724 90745 90668 90553 90436 90331 90238 90153
3654.4448 90077 90020 90005 90045 90115 90172 90195 90193 90185 90185 90195
3659.7480 90204 90198 90173 90140 90117 90116 90138 90172 90205 90232 90253
3665.0515 90274 90294 90307 90304 90277 90218 90121 89990 89849 89758 89785
3670.3547 89935 90118 90240 90268 90210 90092 89938 89787 89716 89848 90201
3675.6580 90503 90583 90524 90425 90333 90268 90243 90262 90317 90383 90436
3680.9612 90461 90455 90425 90385 90354 90343 90354 90370 90365 90319 90230
3686.2646 90105 89968 89850 89788 89790 89816 89825 89825 89857 89958 90124
3691.5679 90300 90431 90495 90503 90475 90429 90378 90334 90305 90299 90322
3696.8711 90370 90428 90472 90477 90428 90329 90196 90065 89981 89985 90072
3702.1743 90189 90276 90313 90310 90287 90260 90237 90215 90186 90149 90107
3707.4778 90069 90045 90040 90045 90046 90037 90034 90071 90172 90310 90410
3712.7810 90419 90350 90244 90140 90067 90042 90064 90118 90181 90233 90258
3718.0842 90242 90182 90091 89991 89909 89865 89880 89966 90104 90234 90294
3723.3875 90264 90162 90024 89893 89817 89832 89933 90076 90211 90303 90343
3728.6909 90331 90275 90191 90110 90076 90129 90272 90432 90510 90456 90276
3733.9941 90005 89715 89526 89532 89701 89918 90102 90226 90293 90319 90322
3739.2974 90315 90303 90275 90217 90127 90018 89913 89849 89873 90047 90344
3744.6006 90530 90469 90295 90122 89987 89892 89833 89803 89784 89743 89653
3749.9041 89517 89372 89277 89309 89508 89796 90028 90138 90147 90102 90051
3755.2073 90029 90052 90098 90122 90094 90026 89961 89953 90023 90132 90202
3760.5105 90198 90149 90102 90087 90104 90128 90130 90097 90042 90003 90008
3765.8137 90047 90074 90056 89991 89895 89795 89726 89724 89799 89910 90007
3771.1172 90067 90098 90118 90144 90182 90230 90274 90294 90277 90222 90142
3776.4204 90060 90001 89979 90004 90069 90151 90214 90236 90221 90190 90156
3781.7236 90121 90081 90032 89980 89939 89931 89965 90034 90107 90157 90167
3787.0269 90138 90082 90020 89976 89967 89996 90049 90105 90143 90150 90131
3792.3303 90100 90071 90054 90050 90050 90045 90026 89989 89940 89890 89845
3797.6335 89803 89758 89707 89647 89584 89529 89513 89571 89706 89861 89987
3802.9368 90070 90114 90123 90103 90065 90027 90011 90035 90082 90114 90115
3808.2400 90104 90103 90118 90145 90169 90177 90167 90145 90116 90079 90027
3813.5435 89958 89881 89828 89847 89973 90153 90272 90280 90209 90102 89981
3818.8467 89855 89734 89647 89651 89779 89960 90082 90117 90091 90034 89964
3824.1499 89889 89818 89755 89712 89699 89721 89770 89827 89879 89917 89946
3829.4531 89973 90005 90047 90087 90103 90079 90023 89958 89909 89895 89920
3834.7566 89967 90005 90013 89985 89926 89839 89728 89613 89525 89492 89527
3840.0598 89621 89738 89838 89900 89930 89954 89989 90038 90084 90108 90106
3845.3630 90089 90074 90071 90084 90107 90132 90145 90136 90100 90037 89951
3850.6663 89842 89705 89535 89345 89210 89261 89511 89769 89900 89915 89875
3855.9697 89837 89843 89910 90014 90108 90153 90141 90092 90033 89988 89966
3861.2729 89958 89944 89912 89865 89821 89805 89837 89921 90023 90101 90137
3866.5762 90136 90104 90051 89985 89928 89912 89952 90002 89998 89934 89839
3871.8794 89745 89678 89669 89734 89854 89965 90019 90022 90005 89994 89994
3877.1829 89996 89988 89960 89919 89888 89899 89963 90044 90094 90096 90064
3882.4861 90016 89972 89940 89929 89942 89981 90038 90097 90143 90170 90174
3887.7893 90150 90090 89993 89869 89747 89675 89703 89829 89984 90088 90116
3893.0925 90086 90030 89974 89934 89913 89903 89898 89893 89889 89892 89908
3898.3960 89934 89956 89958 89938 89906 89871 89843 89821 89803 89790 89789
3903.6992 89802 89826 89843 89843 89831 89826 89847 89901 89978 90057 90116
3909.0024 90141 90137 90122 90112 90116 90131 90146 90149 90131 90092 90035
3914.3057 89967 89901 89853 89836 89856 89898 89934 89945 89931 89908 89895
3919.6091 89908 89946 89992 90024 90026 89993 89931 89859 89808 89811 89879
3924.9124 89984 90077 90123 90116 90074 90025 89990 89978 89975 89964 89931
3930.2156 89882 89840 89828 89857 89914 89970 89999 89994 89967 89937 89918
3935.5188 89920 89941 89976 90020 90068 90114 90150 90168 90161 90129 90081
3940.8223 90026 89978 89942 89918 89901 89884 89868 89856 89846 89834 89816
3946.1255 89791 89766 89757 89776 89826 89895 89966 90025 90068 90097 90119
3951.4287 90135 90137 90117 90073 90012 89953 89915 89909 89928 89956 89975
3956.7319 89974 89959 89945 89946 89965 89996 90027 90049 90060 90063 90059
3962.0354 90045 90020 89987 89956 89938 89945 89977 90022 90064 90089 90094
3967.3386 90085 90075 90075 90084 90095 90097 90086 90063 90037 90014 89997
3972.6418 89984 89975 89971 89977 89993 90017 90036 90039 90025 89999 89974
3977.9451 89958 89955 89958 89963 89967 89969 89974 89982 89989 89992 89992
3983.2485 89997 90012 90044 90089 90135 90168 90174 90146 90083 89995 89898
3988.5518 89813 89759 89745 89764 89799 89831 89851 89864 89883 89913 89945
3993.8550 89965 89960 89934 89911 89918 89967 90051 90142 90206 90219 90179
3999.1582 90098 90002 89912
##END= 
