##TITLE= STDSULFAGUANIDINA
##JCAMP-DX= 4.24
##DATA TYPE= INFRARED SPECTRUM
##ORIGIN= JASCO
##OWNER= 
##DATE= 22/03/31
##TIME= 08:43:31
##SPECTROMETER/DATA SYSTEM= 
##RESOLUTION= 
##DELTAX=   0.48211674
##XUNITS= 1/CM
##YUNITS= TRANSMITTANCE
##XFACTOR= 1.00000
##YFACTOR= 1E-005
##FIRSTX=   599.7532
##LASTX=  4000.1226
##NPOINTS=     7054
##FIRSTY=      0.54346
##MAXY=      0.97979
##MINY=      0.54346
##XYDATA= (X++(Y..Y))
599.7532 54346 54385 54505 54676 54855 55020 55179 55356 55572 55827 56102
605.0565 56373 56617 56817 56968 57074 57160 57270 57454 57744 58134 58569
610.3598 58971 59272 59441 59494 59478 59449 59447 59497 59607 59776 59992
615.6631 60224 60436 60594 60695 60779 60909 61141 61493 61931 62389 62794
620.9664 63095 63287 63418 63572 63830 64238 64792 65430 66065 66612 67028
626.2697 67323 67544 67750 67983 68269 68611 69002 69415 69811 70137 70339
631.5729 70388 70300 70141 70013 70009 70181 70514 70943 71387 71791 72145
636.8762 72460 72736 72945 73040 73000 72860 72703 72616 72636 72735 72849
642.1795 72924 72946 72939 72923 72890 72804 72636 72404 72181 72067 72135
647.4828 72384 72720 72987 73033 72793 72325 71780 71325 71069 71027 71126
652.7861 71257 71330 71323 71278 71259 71312 71428 71553 71610 71541 71326
658.0894 70993 70608 70255 70009 69911 69963 70131 70355 70573 70730 70794
663.3926 70754 70618 70411 70169 69922 69691 69487 69320 69212 69213 69338
668.6959 69478 69568 69655 69789 69977 70197 70393 70496 70455 70265 69968
673.9992 69632 69329 69119 69037 69086 69228 69404 69551 69629 69636 69599
679.3025 69562 69563 69626 69753 69918 70059 70094 69955 69641 69243 68924
684.6058 68836 69035 69434 69853 70123 70188 70135 70128 70300 70671 71151
689.9091 71615 71983 72262 72510 72780 73086 73418 73767 74146 74577 75061
695.2123 75566 76044 76470 76863 77270 77727 78227 78718 79140 79465 79706
700.5156 79896 80055 80175 80230 80213 80155 80123 80184 80369 80655 80981
705.8189 81275 81492 81620 81674 81678 81647 81591 81525 81476 81482 81573
711.1222 81750 81979 82198 82351 82416 82419 82428 82513 82715 83024 83385
716.4255 83719 83958 84077 84102 84097 84137 84278 84537 84882 85244 85555
721.7288 85772 85889 85926 85916 85894 85888 85915 85976 86057 86136 86192
727.0320 86213 86195 86146 86087 86043 86040 86094 86198 86328 86452 86545
732.3353 86604 86648 86704 86783 86879 86968 87029 87059 87078 87112 87182
737.6386 87285 87405 87518 87613 87692 87766 87842 87913 87962 87970 87933
742.9419 87865 87792 87745 87739 87766 87799 87800 87742 87622 87462 87301
748.2452 87176 87102 87069 87049 87019 86973 86926 86898 86904 86939 86985
753.5485 87028 87062 87090 87114 87127 87124 87104 87085 87092 87139 87215
758.8517 87279 87284 87203 87047 86863 86715 86662 86733 86916 87159 87387
764.1550 87526 87534 87413 87203 86962 86739 86558 86424 86327 86261 86218
769.4583 86187 86149 86084 85983 85854 85714 85576 85443 85308 85170 85041
774.7616 84940 84876 84841 84800 84718 84574 84376 84160 83969 83840 83788
780.0649 83804 83854 83893 83873 83765 83570 83318 83062 82852 82720 82666
785.3682 82665 82677 82658 82574 82406 82159 81856 81538 81243 81000 80813
790.6714 80662 80522 80373 80212 80050 79898 79757 79614 79453 79267 79057
795.9747 78838 78619 78406 78194 77972 77733 77470 77184 76883 76582 76299
801.2780 76046 75819 75599 75354 75062 74719 74342 73958 73585 73226 72871
806.5813 72505 72120 71716 71305 70906 70542 70233 69988 69793 69617 69420
811.8846 69177 68891 68588 68304 68064 67871 67710 67561 67412 67267 67136
817.1879 67025 66926 66811 66646 66406 66095 65765 65503 65411 65566 65994
822.4911 66658 67472 68332 69148 69865 70465 70958 71368 71709 71977 72154
827.7944 72221 72184 72084 72002 72034 72266 72748 73487 74444 75550 76715
833.0977 77843 78848 79670 80290 80730 81041 81291 81535 81811 82137 82512
838.4010 82925 83353 83765 84127 84400 84560 84595 84511 84324 84059 83743
843.7043 83410 83100 82864 82753 82810 83058 83494 84091 84805 85595 86425
849.0076 87266 88093 88877 89589 90202 90707 91108 91421 91669 91872 92055
854.3109 92241 92450 92686 92927 93128 93250 93279 93240 93188 93179 93235
859.6141 93344 93461 93542 93561 93518 93431 93325 93224 93150 93122 93148
864.9174 93217 93301 93364 93379 93347 93297 93271 93295 93368 93455 93509
870.2207 93498 93424 93313 93202 93117 93060 93021 92989 92960 92937 92921
875.5240 92905 92881 92848 92814 92795 92802 92826 92849 92849 92819 92771
880.8273 92730 92716 92734 92775 92818 92847 92852 92836 92803 92759 92701
886.1306 92623 92520 92394 92258 92137 92055 92027 92049 92099 92147 92172
891.4338 92167 92145 92124 92121 92139 92169 92202 92228 92242 92236 92203
896.7371 92132 92022 91881 91732 91605 91528 91514 91555 91622 91673 91671
902.0404 91596 91465 91318 91205 91160 91181 91237 91281 91284 91241 91175
907.3437 91111 91060 91016 90961 90886 90795 90710 90652 90628 90629 90635
912.6470 90624 90588 90530 90465 90410 90374 90357 90349 90339 90320 90292
917.9503 90259 90223 90183 90134 90073 90004 89941 89900 89888 89901 89921
923.2535 89927 89902 89843 89760 89670 89592 89540 89519 89520 89526 89518
928.5568 89479 89410 89328 89260 89229 89243 89288 89334 89355 89335 89279
933.8601 89204 89130 89071 89025 88983 88932 88862 88771 88662 88544 88425
939.1634 88308 88193 88079 87971 87883 87840 87863 87961 88121 88308 88477
944.4667 88588 88623 88585 88498 88388 88278 88183 88107 88054 88022 88009
949.7700 88006 88004 87994 87973 87943 87909 87875 87845 87823 87814 87820
955.0732 87837 87853 87846 87801 87716 87601 87476 87360 87258 87168 87084
960.3765 87005 86933 86865 86795 86704 86576 86401 86189 85964 85765 85632
965.6798 85596 85669 85841 86072 86309 86494 86589 86586 86512 86413 86337
970.9831 86311 86338 86395 86450 86475 86458 86402 86324 86241 86167 86105
976.2864 86055 86011 85970 85930 85893 85858 85826 85795 85764 85732 85700
981.5897 85663 85618 85557 85475 85369 85243 85108 84978 84868 84793 84761
986.8929 84773 84817 84874 84920 84935 84905 84832 84725 84600 84473 84357
992.1962 84259 84180 84115 84058 84001 83938 83862 83764 83643 83499 83344
997.4995 83189 83045 82913 82791 82672 82555 82444 82341 82238 82119 81961
1002.8028 81748 81477 81147 80755 80288 79737 79126 78531 78076 77898 78090
1008.1061 78658 79506 80475 81395 82136 82640 82912 83001 82967 82869 82747
1013.4094 82629 82521 82416 82300 82161 82001 81834 81678 81546 81437 81339
1018.7126 81232 81109 80972 80835 80712 80608 80515 80418 80305 80175 80033
1024.0160 79886 79737 79583 79424 79263 79110 78975 78855 78736 78596 78423
1029.3192 78219 78005 77805 77631 77483 77347 77206 77054 76889 76717 76540
1034.6226 76358 76169 75978 75792 75616 75449 75282 75098 74883 74632 74353
1039.9258 74061 73772 73497 73238 72990 72744 72492 72229 71952 71662 71361
1045.2291 71054 70744 70438 70140 69853 69580 69328 69103 68915 68773 68685
1050.5323 68657 68689 68778 68914 69084 69277 69484 69704 69941 70201 70482
1055.8357 70778 71080 71374 71653 71918 72171 72419 72660 72884 73072 73210
1061.1389 73292 73326 73329 73320 73309 73293 73263 73211 73133 73027 72892
1066.4423 72724 72522 72292 72049 71809 71581 71362 71139 70899 70634 70346
1071.7455 70042 69731 69416 69101 68784 68470 68159 67855 67561 67278 67007
1077.0488 66746 66488 66228 65960 65686 65413 65150 64907 64687 64490 64321
1082.3521 64185 64092 64052 64069 64141 64267 64446 64682 64981 65346 65775
1087.6554 66259 66788 67349 67936 68542 69160 69783 70403 71016 71617 72206
1092.9586 72780 73332 73850 74323 74747 75125 75471 75797 76107 76388 76617
1098.2620 76769 76838 76831 76774 76691 76601 76503 76385 76230 76025 75770
1103.5652 75477 75165 74852 74550 74258 73966 73666 73351 73025 72694 72364
1108.8685 72031 71687 71321 70929 70510 70071 69624 69180 68752 68346 67966
1114.1718 67604 67249 66886 66506 66109 65700 65290 64887 64492 64105 63723
1119.4751 63343 62968 62602 62253 61925 61622 61343 61084 60842 60617 60416
1124.7783 60246 60117 60038 60013 60048 60150 60334 60610 60984 61448 61974
1130.0817 62525 63064 63571 64050 64526 65037 65623 66315 67132 68080 69152
1135.3849 70331 71593 72910 74255 75600 76919 78186 79374 80461 81437 82309
1140.6882 83095 83816 84482 85094 85638 86100 86473 86760 86971 87116 87206
1145.9915 87244 87235 87182 87091 86973 86841 86707 86580 86457 86332 86192
1151.2948 86031 85850 85659 85464 85268 85066 84855 84632 84405 84184 83975
1156.5980 83776 83576 83364 83135 82891 82640 82390 82147 81909 81672 81432
1161.9014 81187 80937 80684 80432 80181 79930 79675 79409 79128 78830 78521
1167.2046 78207 77900 77604 77322 77053 76791 76533 76277 76026 75784 75554
1172.5079 75339 75136 74944 74763 74598 74459 74356 74291 74262 74258 74274
1177.8112 74307 74365 74461 74604 74795 75028 75295 75590 75911 76261 76636
1183.1145 77026 77413 77778 78110 78405 78672 78923 79167 79413 79659 79902
1188.4177 80137 80357 80560 80748 80926 81099 81269 81433 81582 81706 81800
1193.7211 81865 81906 81930 81942 81942 81928 81900 81860 81811 81756 81695
1199.0243 81629 81555 81474 81388 81298 81204 81100 80981 80840 80678 80501
1204.3276 80321 80147 79983 79822 79650 79453 79227 78979 78729 78494 78279
1209.6309 78078 77871 77642 77384 77108 76833 76579 76353 76150 75954 75748
1214.9342 75522 75278 75023 74766 74517 74278 74049 73827 73610 73394 73178
1220.2374 72961 72745 72531 72323 72119 71918 71714 71510 71309 71122 70958
1225.5408 70821 70712 70624 70555 70504 70477 70480 70517 70592 70704 70851
1230.8440 71031 71241 71484 71761 72074 72428 72823 73254 73714 74193 74683
1236.1473 75182 75693 76222 76770 77335 77907 78473 79026 79568 80104 80644
1241.4506 81190 81739 82284 82820 83341 83850 84345 84827 85295 85745 86178
1246.7539 86596 87000 87394 87779 88156 88525 88880 89218 89531 89817 90077
1252.0571 90316 90543 90765 90987 91206 91421 91625 91816 91994 92157 92304
1257.3605 92432 92539 92627 92705 92781 92864 92956 93049 93131 93195 93239
1262.6637 93269 93294 93320 93353 93392 93439 93493 93555 93618 93673 93708
1267.9670 93711 93682 93628 93568 93523 93505 93521 93563 93619 93675 93721
1273.2703 93753 93772 93783 93788 93792 93795 93796 93792 93778 93749 93703
1278.5736 93642 93574 93507 93449 93402 93360 93313 93252 93173 93082 92990
1283.8768 92914 92863 92834 92815 92789 92744 92677 92598 92521 92456 92407
1289.1802 92365 92323 92273 92216 92156 92093 92024 91941 91835 91703 91546
1294.4834 91374 91193 91010 90824 90628 90415 90172 89889 89557 89168 88724
1299.7867 88239 87743 87283 86914 86682 86609 86682 86855 87065 87247 87357
1305.0900 87377 87314 87187 87023 86847 86683 86554 86480 86475 86551 86714
1310.3933 86964 87301 87721 88216 88771 89363 89966 90553 91103 91600 92036
1315.6965 92402 92695 92918 93083 93208 93312 93411 93509 93605 93689 93752
1320.9999 93789 93798 93782 93746 93700 93650 93605 93566 93530 93492 93451
1326.3031 93406 93361 93319 93283 93247 93210 93168 93123 93078 93034 92994
1331.6064 92956 92924 92900 92887 92882 92873 92850 92804 92736 92656 92574
1336.9097 92492 92406 92309 92206 92118 92084 92134 92263 92435 92602 92734
1342.2130 92821 92869 92889 92892 92888 92882 92876 92869 92856 92833 92793
1347.5162 92735 92665 92597 92548 92531 92549 92589 92629 92649 92631 92572
1352.8196 92480 92374 92278 92215 92193 92204 92227 92242 92238 92219 92195
1358.1228 92175 92158 92134 92083 91991 91851 91675 91491 91351 91309 91392
1363.4261 91573 91787 91970 92089 92137 92121 92055 91957 91847 91753 91701
1368.7294 91706 91761 91839 91903 91924 91884 91781 91619 91413 91192 91009
1374.0327 90921 90957 91086 91241 91367 91435 91448 91426 91394 91376 91380
1379.3359 91402 91428 91446 91448 91430 91398 91365 91339 91327 91317 91289
1384.6393 91220 91094 90912 90700 90515 90427 90471 90608 90762 90875 90932
1389.9425 90945 90934 90915 90891 90846 90755 90596 90365 90092 89851 89740
1395.2458 89787 89923 90046 90091 90039 89909 89752 89647 89658 89782 89956
1400.5491 90117 90228 90279 90270 90203 90082 89919 89742 89596 89527 89552
1405.8524 89640 89738 89805 89825 89799 89743 89673 89600 89531 89467 89413
1411.1556 89374 89351 89339 89323 89290 89228 89135 89012 88864 88695 88510
1416.4590 88309 88086 87832 87545 87262 87089 87134 87370 87647 87853 87946
1421.7622 87919 87782 87562 87324 87157 87118 87187 87297 87386 87423 87397
1427.0656 87311 87171 86987 86774 86564 86404 86332 86344 86398 86451 86484
1432.3688 86503 86523 86544 86548 86507 86401 86234 86063 86022 86236 86631
1437.6721 87015 87291 87468 87578 87646 87683 87691 87674 87638 87590 87539
1442.9753 87486 87432 87372 87300 87207 87084 86922 86719 86491 86287 86168
1448.2787 86165 86239 86320 86353 86318 86223 86095 85965 85847 85725 85568
1453.5819 85349 85058 84699 84282 83814 83310 82816 82458 82376 82576 82937
1458.8853 83335 83696 83983 84185 84302 84336 84292 84173 83980 83719 83412
1464.1885 83117 82934 82919 83022 83137 83200 83193 83125 83016 82880 82724
1469.4918 82538 82301 81984 81557 81013 80430 80027 79970 80148 80342 80437
1474.7950 80416 80306 80160 80044 79996 79988 79963 79878 79714 79477 79187
1480.0984 78879 78593 78359 78185 78054 77935 77796 77613 77374 77081 76739
1485.4016 76356 75932 75476 75014 74581 74191 73822 73432 73006 72601 72338
1490.7050 72273 72329 72392 72397 72330 72199 72022 71806 71553 71260 70948
1496.0082 70662 70451 70319 70241 70202 70224 70338 70560 70881 71299 71832
1501.3115 72497 73267 74050 74721 75196 75452 75505 75363 74993 74339 73482
1506.6147 72880 72867 73165 73481 73739 73935 74072 74141 74135 74056 73924
1511.9181 73772 73631 73506 73376 73205 72965 72640 72226 71748 71298 71032
1517.2213 71022 71150 71257 71261 71132 70845 70376 69773 69292 69273 69621
1522.5247 69992 70227 70322 70320 70266 70211 70193 70227 70301 70410 70565
1527.8279 70780 71051 71337 71591 71780 71893 71936 71921 71866 71813 71844
1533.1312 72073 72543 73143 73718 74195 74571 74852 75032 75094 75018 74799
1538.4344 74494 74318 74619 75396 76212 76869 77452 78046 78635 79155 79586
1543.7378 79978 80429 81022 81742 82471 83086 83544 83857 84053 84152 84184
1549.0410 84216 84356 84683 85146 85595 85919 86085 86108 86027 85915 85877
1554.3444 85984 86177 86332 86375 86279 86019 85531 84694 83468 82587 83293
1559.6476 84741 85853 86556 86993 87256 87391 87416 87340 87174 86954 86746
1564.9509 86615 86566 86541 86468 86298 86006 85575 85006 84363 83820 83534
1570.2542 83431 83309 83045 82617 82067 81476 80937 80515 80235 80115 80238
1575.5575 80789 81869 83134 84090 84644 84942 85106 85187 85196 85131 84997
1580.8607 84810 84590 84354 84111 83865 83615 83357 83085 82797 82494 82180
1586.1641 81860 81532 81192 80833 80456 80072 79698 79355 79056 78801 78582
1591.4674 78383 78186 77975 77737 77468 77172 76867 76575 76313 76084 75881
1596.7706 75694 75516 75346 75188 75044 74914 74796 74683 74565 74436 74287
1602.0740 74116 73925 73719 73499 73261 72988 72669 72296 71882 71450 71029
1607.3772 70634 70265 69910 69566 69252 68991 68799 68668 68578 68511 68467
1612.6805 68457 68484 68538 68588 68609 68598 68613 68810 69366 70198 71009
1617.9838 71655 72176 72645 73098 73529 73902 74185 74375 74516 74706 75090
1623.2871 75767 76637 77472 78138 78641 79039 79399 79788 80275 80891 81584
1628.5903 82254 82828 83295 83678 84004 84290 84535 84723 84838 84874 84827
1633.8937 84700 84509 84327 84317 84596 85066 85578 86079 86561 87016 87429
1639.1969 87790 88105 88390 88663 88936 89210 89476 89716 89911 90042 90091
1644.5002 90040 89873 89590 89259 89057 89190 89688 90377 91053 91592 91956
1649.8035 92152 92205 92134 91929 91534 90842 89941 89777 90768 91834 92587
1655.1068 93114 93507 93816 94068 94280 94466 94634 94783 94906 94988 95013
1660.4100 94972 94868 94723 94599 94588 94753 95049 95371 95646 95852 95987
1665.7134 96046 96022 95905 95690 95387 95038 94743 94620 94697 94887 95100
1671.0166 95310 95523 95725 95883 95960 95937 95815 95636 95522 95617 95907
1676.3199 96228 96462 96581 96589 96495 96319 96107 95931 95850 95858 95887
1681.6232 95853 95679 95285 94586 93648 93131 93750 94804 95569 96000 96211
1686.9265 96289 96288 96253 96224 96240 96316 96443 96597 96752 96890 96993
1692.2297 97045 97031 96938 96754 96456 96026 95494 95053 94978 95228 95531
1697.5331 95732 95804 95744 95542 95222 95018 95294 95827 96227 96446 96543
1702.8363 96557 96509 96411 96281 96149 96060 96068 96202 96440 96711 96941
1708.1396 97087 97143 97126 97077 97042 97045 97071 97077 97024 96889 96672
1713.4429 96393 96103 95870 95726 95634 95510 95293 94984 94718 94770 95247
1718.7462 95890 96430 96799 97025 97141 97173 97138 97057 96966 96902 96893
1724.0494 96941 97021 97107 97182 97242 97285 97299 97263 97157 96973 96731
1729.3528 96494 96340 96302 96328 96326 96218 95949 95490 94905 94510 94719
1734.6560 95368 95984 96400 96644 96764 96787 96723 96579 96379 96193 96120
1739.9594 96208 96379 96517 96553 96478 96323 96158 96066 96089 96189 96282
1745.2626 96304 96228 96062 95840 95622 95470 95418 95442 95491 95528 95554
1750.5659 95612 95758 96004 96296 96561 96754 96860 96877 96808 96661 96455
1755.8691 96237 96074 96034 96131 96314 96504 96642 96696 96656 96529 96345
1761.1725 96171 96098 96167 96332 96521 96689 96824 96919 96962 96937 96830
1766.4757 96643 96410 96197 96080 96080 96133 96142 96040 95799 95430 95026
1771.7791 94795 94922 95316 95722 96004 96163 96245 96301 96369 96461 96560
1777.0823 96636 96662 96625 96524 96372 96206 96083 96063 96164 96343 96526
1782.3856 96651 96691 96653 96571 96497 96476 96514 96586 96654 96699 96719
1787.6888 96718 96692 96630 96515 96333 96083 95780 95474 95255 95231 95421
1792.9922 95711 95953 96076 96085 96031 95987 96017 96131 96279 96383 96390
1798.2954 96289 96116 95940 95829 95813 95868 95958 96057 96156 96255 96348
1803.5988 96428 96492 96537 96562 96563 96539 96496 96445 96403 96376 96356
1808.9020 96329 96282 96222 96174 96168 96222 96325 96451 96570 96663 96715
1814.2053 96717 96670 96587 96487 96398 96339 96320 96339 96379 96424 96457
1819.5085 96471 96464 96441 96413 96395 96391 96392 96374 96309 96177 95993
1824.8119 95816 95727 95757 95859 95950 95967 95874 95668 95394 95161 95110
1830.1151 95288 95592 95887 96105 96240 96310 96338 96339 96322 96285 96225
1835.4185 96146 96064 96006 95997 96041 96119 96197 96245 96253 96231 96198
1840.7217 96163 96117 96033 95883 95658 95390 95174 95127 95264 95465 95611
1846.0250 95670 95678 95696 95774 95923 96097 96231 96286 96265 96200 96130
1851.3282 96083 96068 96081 96113 96157 96205 96247 96274 96273 96241 96180
1856.6316 96102 96023 95963 95939 95960 96021 96106 96192 96258 96292 96294
1861.9348 96273 96241 96207 96176 96144 96107 96053 95973 95857 95709 95540
1867.2382 95376 95253 95209 95258 95377 95509 95611 95673 95716 95767 95846
1872.5414 95954 96067 96150 96180 96154 96099 96047 96026 96039 96072 96103
1877.8447 96119 96116 96101 96081 96058 96030 95994 95948 95896 95841 95792
1883.1479 95758 95746 95759 95791 95825 95841 95823 95765 95671 95555 95441
1888.4513 95361 95353 95438 95601 95794 95969 96100 96177 96200 96167 96083
1893.7545 95963 95839 95749 95719 95745 95794 95831 95837 95820 95801 95796
1899.0579 95809 95827 95836 95835 95831 95833 95839 95835 95805 95742 95654
1904.3611 95561 95485 95440 95430 95452 95492 95534 95556 95543 95489 95409
1909.6644 95331 95285 95290 95350 95460 95613 95803 96007 96186 96282 96253
1914.9677 96098 95864 95628 95464 95420 95497 95643 95779 95854 95862 95814
1920.2710 95716 95567 95379 95190 95067 95057 95149 95272 95359 95388 95395
1925.5742 95434 95535 95680 95812 95874 95844 95751 95636 95529 95429 95323
1930.8776 95209 95112 95070 95110 95234 95419 95628 95832 96001 96106 96117
1936.1808 96031 95882 95746 95706 95805 96011 96229 96346 96289 96059 95717
1941.4841 95364 95110 95027 95110 95291 95496 95690 95861 96008 96121 96176
1946.7874 96154 96059 95918 95783 95701 95697 95755 95826 95849 95787 95648
1952.0907 95484 95359 95317 95359 95449 95537 95594 95624 95672 95789 96005
1957.3939 96294 96568 96698 96575 96180 95616 95077 94755 94751 95031 95467
1962.6973 95922 96311 96611 96814 96891 96794 96500 96069 95644 95387 95373
1968.0005 95535 95715 95767 95628 95328 94960 94630 94417 94356 94443 94660
1973.3038 94982 95382 95814 96200 96448 96495 96357 96144 96005 96026 96155
1978.6071 96228 96094 95741 95313 95012 94964 95155 95451 95686 95759 95662
1983.9104 95449 95177 94886 94613 94417 94372 94533 94878 95304 95657 95818
1989.2136 95767 95581 95378 95261 95280 95419 95603 95743 95785 95732 95622
1994.5170 95496 95379 95276 95181 95089 95007 94952 94942 94997 95132 95368
1999.8202 95716 96154 96609 96959 97078 96899 96467 95932 95483 95255 95256
2005.1235 95378 95469 95424 95254 95077 95033 95184 95482 95811 96063 96179
2010.4268 96140 95939 95563 95027 94418 93905 93671 93807 94255 94818 95267
2015.7301 95449 95360 95135 94956 94954 95167 95559 96045 96496 96750 96663
2021.0333 96190 95454 94724 94295 94335 94782 95376 95794 95835 95532 95122
2026.3367 94897 95045 95567 96293 96980 97429 97563 97434 97160 96848 96538
2031.6399 96200 95776 95250 94691 94246 94072 94246 94714 95309 95846 96213
2036.9432 96404 96482 96502 96469 96337 96061 95643 95143 94655 94258 93991
2042.2465 93856 93850 93984 94267 94684 95163 95601 95900 96023 96006 95934
2047.5498 95893 95925 96010 96080 96056 95897 95620 95299 95028 94886 94903
2052.8530 95059 95292 95523 95692 95772 95770 95699 95579 95432 95298 95225
2058.1563 95251 95374 95547 95702 95784 95784 95733 95681 95656 95652 95645
2063.4597 95614 95554 95477 95393 95297 95176 95023 94859 94724 94667 94713
2068.7629 94849 95031 95202 95315 95350 95308 95203 95055 94889 94738 94641
2074.0662 94630 94713 94872 95071 95272 95448 95588 95688 95748 95762 95733
2079.3694 95672 95597 95525 95467 95422 95390 95372 95375 95402 95443 95478
2084.6729 95478 95427 95328 95204 95087 95005 94970 94978 95010 95049 95076
2089.9761 95081 95064 95031 94994 94971 94974 95003 95050 95099 95138 95165
2095.2793 95181 95187 95172 95120 95017 94877 94736 94642 94627 94695 94815
2100.5825 94943 95038 95085 95086 95050 94989 94911 94832 94774 94758 94790
2105.8860 94861 94944 95018 95075 95122 95166 95198 95194 95130 95004 94847
2111.1892 94706 94623 94610 94651 94720 94804 94912 95058 95233 95392 95464
2116.4924 95393 95177 94885 94626 94499 94541 94710 94908 95036 95038 94928
2121.7957 94767 94629 94561 94564 94603 94632 94619 94568 94516 94513 94600
2127.0991 94781 95022 95258 95424 95478 95418 95266 95061 94843 94653 94528
2132.4023 94499 94579 94745 94945 95115 95209 95230 95226 95266 95391 95586
2137.7056 95764 95805 95613 95187 94641 94174 93976 94134 94579 95110 95500
2143.0088 95614 95481 95265 95162 95287 95612 95995 96268 96338 96243 96128
2148.3123 96153 96399 96810 97219 97438 97359 97008 96525 96079 95788 95674
2153.6155 95686 95743 95796 95848 95949 96156 96503 96969 97468 97857 97979
2158.9187 97751 97240 96652 96229 96123 96329 96710 97065 97219 97092 96742
2164.2219 96331 96048 96019 96245 96617 96983 97235 97355 97392 97389 97336
2169.5254 97174 96861 96427 95980 95644 95475 95430 95412 95356 95286 95301
2174.8286 95494 95869 96311 96659 96795 96717 96517 96317 96207 96215 96323
2180.1318 96478 96612 96650 96542 96292 95966 95659 95440 95306 95203 95078
2185.4351 94941 94871 94964 95262 95705 96148 96427 96446 96219 95851 95481
2190.7385 95211 95067 94995 94908 94742 94503 94273 94171 94281 94603 95038
2196.0417 95439 95675 95699 95548 95313 95083 94915 94828 94810 94838 94877
2201.3450 94890 94850 94758 94642 94556 94557 94676 94900 95172 95405 95525
2206.6482 95497 95348 95158 95013 94968 95020 95115 95198 95241 95264 95305
2211.9517 95392 95515 95633 95705 95706 95642 95530 95389 95234 95086 94972
2217.2549 94919 94931 94980 95011 94976 94858 94687 94523 94423 94409 94464
2222.5581 94545 94617 94674 94737 94842 95007 95214 95405 95507 95467 95285
2227.8613 95019 94764 94609 94590 94691 94857 95034 95197 95351 95507 95660
2233.1648 95781 95831 95793 95680 95537 95413 95340 95322 95348 95398 95461
2238.4680 95530 95596 95650 95679 95676 95638 95573 95491 95405 95327 95264
2243.7712 95220 95192 95174 95159 95143 95121 95091 95051 95002 94956 94931
2249.0745 94954 95038 95178 95342 95483 95555 95539 95448 95324 95215 95151
2254.3779 95136 95147 95151 95123 95054 94956 94853 94769 94729 94745 94820
2259.6812 94943 95087 95214 95289 95291 95222 95111 94996 94910 94870 94875
2264.9844 94911 94957 94997 95017 95011 94975 94915 94842 94770 94716 94690
2270.2876 94696 94730 94775 94809 94812 94774 94701 94613 94536 94495 94501
2275.5911 94552 94634 94724 94794 94819 94787 94705 94602 94513 94467 94474
2280.8943 94519 94573 94607 94605 94567 94505 94438 94383 94350 94342 94354
2286.1975 94377 94400 94419 94433 94441 94445 94443 94436 94425 94412 94399
2291.5007 94383 94358 94320 94273 94226 94195 94189 94206 94234 94260 94275
2296.8042 94280 94285 94293 94302 94306 94296 94275 94254 94247 94258 94276
2302.1074 94283 94262 94212 94150 94102 94090 94119 94170 94213 94215 94164
2307.4106 94067 93953 93860 93814 93824 93879 93954 94021 94061 94065 94040
2312.7139 94000 93963 93945 93952 93978 94009 94029 94029 94009 93976 93943
2318.0173 93917 93903 93904 93921 93951 93987 94018 94036 94042 94044 94051
2323.3206 94062 94070 94067 94054 94043 94049 94073 94095 94087 94023 93910
2328.6238 93782 93691 93673 93736 93852 93984 94102 94199 94278 94344 94391
2333.9270 94416 94421 94424 94446 94500 94574 94637 94654 94610 94519 94412
2339.2305 94321 94262 94222 94173 94093 93988 93903 93894 94003 94215 94458
2344.5337 94632 94664 94551 94357 94175 94064 94026 94030 94039 94033 94004
2349.8369 93959 93907 93858 93811 93757 93687 93601 93511 93442 93417 93456
2355.1401 93564 93721 93884 94000 94020 93937 93795 93678 93669 93802 94037
2360.4436 94286 94460 94518 94484 94407 94323 94226 94094 93922 93755 93661
2365.7468 93694 93852 94078 94293 94441 94506 94502 94447 94348 94207 94033
2371.0500 93858 93724 93667 93698 93807 93961 94123 94259 94350 94389 94386
2376.3533 94355 94313 94271 94236 94211 94200 94206 94229 94263 94300 94334
2381.6567 94362 94382 94395 94401 94400 94395 94395 94406 94434 94470 94500
2386.9600 94509 94491 94454 94412 94382 94370 94377 94393 94413 94432 94450
2392.2632 94469 94488 94503 94509 94500 94479 94453 94432 94426 94434 94449
2397.5664 94457 94451 94435 94422 94426 94450 94483 94506 94503 94477 94442
2402.8699 94422 94429 94460 94501 94538 94563 94583 94603 94625 94641 94641
2408.1731 94620 94584 94544 94508 94479 94454 94429 94410 94405 94417 94442
2413.4763 94468 94480 94472 94457 94453 94476 94528 94590 94636 94648 94620
2418.7795 94567 94509 94464 94438 94425 94420 94419 94422 94433 94448 94462
2424.0830 94467 94462 94452 94449 94461 94486 94513 94528 94523 94506 94492
2429.3862 94495 94515 94536 94536 94504 94450 94398 94372 94382 94417 94454
2434.6895 94476 94481 94478 94477 94480 94478 94457 94411 94351 94297 94271
2439.9927 94285 94336 94409 94484 94550 94606 94657 94708 94757 94793 94802
2445.2961 94774 94708 94615 94517 94434 94380 94362 94377 94417 94469 94518
2450.5994 94552 94561 94542 94500 94450 94411 94402 94432 94497 94583 94663
2455.9026 94716 94728 94697 94635 94561 94495 94449 94428 94429 94446 94468
2461.2058 94491 94509 94522 94529 94527 94513 94486 94448 94410 94385 94383
2466.5093 94407 94445 94484 94506 94507 94487 94453 94415 94379 94350 94337
2471.8125 94343 94370 94412 94455 94483 94484 94454 94402 94341 94287 94247
2477.1157 94221 94203 94189 94180 94184 94207 94249 94300 94345 94371 94375
2482.4189 94363 94350 94348 94362 94388 94419 94443 94453 94444 94420 94389
2487.7224 94362 94349 94348 94351 94340 94305 94246 94176 94116 94085 94093
2493.0256 94137 94205 94281 94350 94399 94420 94408 94372 94326 94289 94276
2498.3289 94288 94314 94339 94351 94348 94336 94324 94318 94324 94342 94369
2503.6321 94399 94420 94420 94391 94339 94277 94222 94185 94163 94149 94134
2508.9355 94119 94116 94133 94172 94225 94280 94325 94351 94356 94339 94299
2514.2388 94243 94181 94128 94094 94084 94092 94110 94131 94153 94174 94188
2519.5420 94188 94167 94126 94078 94045 94043 94077 94135 94198 94245 94270
2524.8452 94281 94291 94311 94339 94366 94378 94369 94342 94303 94257 94206
2530.1487 94152 94100 94061 94047 94062 94097 94132 94151 94142 94112 94074
2535.4519 94039 94015 93998 93987 93987 94004 94047 94112 94187 94250 94284
2540.7551 94282 94251 94209 94170 94147 94141 94146 94154 94161 94165 94168
2546.0583 94172 94180 94189 94193 94183 94151 94094 94021 93952 93911 93916
2551.3618 93968 94050 94128 94175 94178 94144 94094 94049 94021 94007 93998
2556.6650 93988 93974 93960 93952 93954 93971 94002 94044 94086 94116 94126
2561.9683 94111 94081 94050 94032 94030 94040 94053 94065 94079 94103 94141
2567.2715 94192 94240 94266 94254 94206 94139 94081 94054 94062 94086 94099
2572.5750 94077 94019 93945 93886 93867 93896 93963 94048 94126 94176 94181
2577.8782 94141 94068 93990 93936 93926 93958 94010 94059 94088 94099 94101
2583.1814 94101 94098 94085 94057 94018 93982 93959 93955 93963 93974 93979
2588.4849 93973 93957 93936 93915 93902 93900 93910 93925 93935 93935 93923
2593.7881 93903 93879 93852 93823 93793 93767 93752 93751 93760 93768 93768
2599.0913 93759 93746 93738 93738 93745 93754 93766 93782 93809 93844 93883
2604.3945 93915 93937 93951 93966 93989 94018 94040 94043 94016 93962 93895
2609.6980 93833 93792 93782 93800 93836 93875 93904 93913 93904 93886 93872
2615.0012 93870 93879 93893 93902 93902 93894 93888 93889 93897 93908 93914
2620.3044 93912 93902 93887 93871 93852 93830 93805 93778 93755 93737 93729
2625.6077 93731 93747 93772 93803 93829 93842 93841 93828 93814 93807 93811
2630.9111 93822 93833 93834 93820 93789 93749 93711 93691 93701 93742 93800
2636.2144 93854 93882 93877 93848 93817 93803 93814 93840 93864 93871 93855
2641.5176 93826 93796 93775 93765 93760 93752 93736 93717 93700 93692 93692
2646.8208 93696 93699 93698 93694 93689 93686 93683 93680 93675 93669 93664
2652.1243 93665 93671 93682 93698 93716 93735 93751 93759 93757 93746 93728
2657.4275 93710 93698 93694 93698 93708 93718 93726 93728 93724 93716 93706
2662.7307 93697 93690 93684 93681 93682 93691 93707 93729 93748 93755 93747
2668.0339 93726 93704 93692 93696 93716 93745 93772 93791 93799 93793 93778
2673.3374 93756 93734 93716 93708 93713 93730 93753 93777 93794 93801 93799
2678.6406 93792 93786 93788 93798 93811 93820 93819 93809 93798 93794 93804
2683.9438 93824 93842 93849 93840 93819 93796 93781 93777 93782 93792 93801
2689.2471 93810 93817 93824 93828 93828 93824 93818 93817 93826 93843 93862
2694.5505 93879 93887 93889 93891 93896 93903 93905 93893 93868 93836 93809
2699.8538 93799 93809 93834 93861 93881 93888 93884 93873 93862 93852 93845
2705.1570 93841 93836 93831 93824 93818 93814 93815 93823 93840 93863 93887
2710.4602 93908 93921 93923 93914 93896 93875 93858 93851 93856 93872 93893
2715.7637 93909 93913 93904 93885 93865 93854 93854 93862 93873 93880 93879
2721.0669 93871 93858 93843 93828 93815 93804 93793 93783 93774 93768 93770
2726.3701 93785 93817 93863 93913 93955 93978 93980 93963 93937 93911 93893
2731.6733 93883 93879 93878 93880 93884 93891 93900 93910 93919 93926 93932
2736.9768 93936 93936 93931 93920 93901 93877 93853 93834 93824 93822 93827
2742.2800 93834 93839 93841 93841 93842 93848 93857 93867 93872 93870 93863
2747.5833 93855 93853 93862 93880 93900 93914 93917 93911 93903 93902 93907
2752.8865 93912 93910 93895 93872 93856 93858 93884 93928 93974 94005 94013
2758.1899 93997 93965 93929 93898 93879 93874 93880 93891 93900 93902 93895
2763.4932 93881 93869 93861 93858 93859 93858 93854 93849 93843 93839 93837
2768.7964 93838 93845 93859 93881 93907 93928 93938 93935 93923 93906 93892
2774.0996 93881 93872 93865 93858 93852 93845 93835 93819 93800 93782 93773
2779.4031 93776 93789 93805 93818 93826 93832 93843 93860 93879 93892 93892
2784.7063 93873 93840 93799 93760 93727 93703 93687 93680 93684 93699 93727
2790.0095 93763 93797 93819 93824 93815 93803 93797 93801 93811 93820 93820
2795.3127 93811 93798 93786 93782 93782 93783 93779 93767 93749 93732 93725
2800.6162 93733 93755 93782 93799 93795 93768 93727 93688 93665 93661 93670
2805.9194 93682 93688 93684 93675 93663 93651 93640 93629 93620 93614 93612
2811.2227 93615 93620 93627 93637 93648 93664 93683 93703 93722 93735 93741
2816.5259 93740 93735 93728 93724 93721 93718 93712 93699 93680 93658 93640
2821.8293 93629 93631 93645 93669 93699 93726 93743 93746 93736 93719 93705
2827.1326 93698 93700 93704 93705 93698 93686 93677 93683 93705 93741 93776
2832.4358 93799 93800 93782 93754 93728 93713 93710 93714 93718 93718 93712
2837.7390 93703 93695 93691 93694 93705 93723 93742 93758 93763 93755 93734
2843.0425 93706 93681 93669 93676 93704 93745 93784 93805 93802 93776 93738
2848.3457 93703 93680 93671 93670 93676 93685 93700 93719 93738 93749 93749
2853.6489 93738 93726 93722 93733 93754 93776 93785 93775 93746 93705 93664
2858.9521 93635 93626 93640 93668 93698 93713 93703 93671 93632 93609 93615
2864.2556 93651 93704 93751 93778 93780 93765 93745 93729 93716 93704 93687
2869.5588 93667 93646 93630 93620 93614 93609 93603 93596 93588 93578 93567
2874.8621 93558 93554 93563 93589 93628 93672 93709 93732 93740 93740 93737
2880.1653 93733 93724 93704 93670 93623 93575 93537 93518 93522 93546 93581
2885.4688 93617 93647 93665 93671 93668 93657 93642 93621 93591 93554 93513
2890.7720 93477 93459 93464 93492 93534 93574 93599 93598 93572 93533 93495
2896.0752 93473 93473 93493 93521 93544 93556 93556 93549 93539 93531 93528
2901.3784 93531 93545 93569 93601 93627 93635 93617 93580 93539 93513 93513
2906.6819 93533 93558 93571 93561 93530 93490 93458 93448 93467 93509 93559
2911.9851 93600 93614 93600 93565 93526 93499 93487 93486 93487 93484 93474
2917.2883 93462 93450 93434 93414 93390 93366 93351 93353 93371 93400 93430
2922.5916 93452 93463 93463 93454 93439 93422 93403 93386 93375 93371 93376
2927.8950 93389 93403 93414 93417 93411 93399 93384 93370 93361 93361 93369
2933.1982 93383 93398 93408 93414 93419 93428 93443 93460 93469 93460 93429
2938.5015 93384 93340 93314 93311 93328 93352 93368 93368 93353 93329 93306
2943.8047 93288 93278 93272 93266 93259 93251 93246 93245 93248 93254 93263
2949.1082 93275 93292 93313 93334 93350 93355 93348 93331 93311 93293 93282
2954.4114 93281 93287 93299 93311 93321 93327 93329 93330 93334 93341 93347
2959.7146 93345 93324 93283 93229 93177 93142 93133 93150 93183 93218 93247
2965.0178 93263 93266 93254 93227 93187 93143 93104 93081 93076 93084 93098
2970.3213 93110 93119 93127 93133 93133 93121 93090 93045 92999 92965 92958
2975.6245 92981 93026 93080 93125 93145 93134 93095 93042 92991 92959 92956
2980.9277 92977 93011 93041 93054 93043 93009 92959 92905 92854 92814 92785
2986.2310 92771 92773 92793 92827 92869 92908 92930 92928 92903 92861 92815
2991.5344 92774 92744 92728 92723 92728 92738 92747 92751 92746 92735 92722
2996.8376 92714 92717 92735 92765 92804 92841 92865 92865 92840 92797 92750
3002.1409 92715 92703 92712 92735 92762 92789 92814 92838 92856 92860 92841
3007.4441 92799 92745 92693 92659 92644 92638 92628 92604 92564 92518 92475
3012.7476 92443 92422 92409 92403 92405 92419 92447 92486 92529 92566 92587
3018.0508 92585 92561 92521 92478 92444 92430 92436 92456 92477 92482 92462
3023.3540 92411 92336 92252 92178 92131 92122 92147 92188 92224 92234 92209
3028.6572 92154 92084 92020 91977 91962 91972 91997 92025 92050 92071 92093
3033.9607 92118 92143 92163 92172 92171 92168 92174 92194 92224 92254 92274
3039.2639 92276 92262 92238 92209 92178 92150 92129 92120 92123 92130 92131
3044.5671 92117 92083 92038 91996 91971 91969 91985 92006 92018 92015 92000
3049.8704 91985 91978 91978 91974 91952 91905 91838 91772 91729 91721 91742
3055.1738 91772 91790 91787 91770 91758 91770 91808 91861 91910 91940 91950
3060.4771 91947 91941 91933 91914 91873 91805 91720 91635 91567 91523 91494
3065.7803 91470 91444 91424 91423 91455 91522 91612 91706 91784 91833 91854
3071.0835 91857 91855 91861 91879 91906 91931 91941 91928 91890 91834 91771
3076.3870 91714 91673 91650 91643 91647 91653 91657 91656 91653 91650 91652
3081.6902 91657 91660 91650 91623 91579 91530 91490 91470 91469 91480 91491
3086.9934 91497 91498 91495 91486 91469 91439 91402 91367 91346 91344 91357
3092.2966 91373 91384 91384 91376 91362 91342 91314 91278 91235 91194 91164
3097.6001 91151 91159 91182 91210 91230 91230 91207 91169 91131 91108 91106
3102.9033 91122 91143 91157 91159 91151 91139 91127 91115 91101 91082 91061
3108.2065 91040 91026 91019 91019 91023 91027 91025 91016 90999 90977 90952
3113.5098 90926 90901 90876 90851 90827 90802 90778 90753 90728 90701 90676
3118.8132 90660 90656 90662 90674 90680 90673 90653 90624 90595 90571 90550
3124.1165 90526 90496 90457 90414 90372 90333 90301 90281 90283 90315 90375
3129.4197 90446 90497 90498 90440 90333 90210 90105 90037 90011 90013 90033
3134.7229 90061 90097 90136 90172 90196 90203 90195 90179 90161 90140 90109
3140.0264 90066 90013 89965 89934 89928 89939 89954 89958 89944 89916 89883
3145.3296 89855 89835 89818 89802 89784 89765 89749 89742 89747 89763 89789
3150.6328 89818 89837 89835 89806 89752 89689 89634 89597 89580 89573 89564
3155.9360 89548 89523 89494 89465 89435 89404 89374 89348 89332 89326 89328
3161.2395 89332 89334 89334 89332 89330 89324 89310 89281 89235 89178 89117
3166.5427 89065 89026 89005 88998 89003 89013 89020 89016 88989 88939 88873
3171.8459 88810 88771 88765 88788 88822 88845 88839 88798 88723 88623 88511
3177.1492 88405 88322 88274 88264 88279 88302 88315 88310 88289 88258 88226
3182.4526 88196 88167 88134 88092 88041 87983 87927 87881 87854 87844 87848
3187.7559 87856 87860 87857 87841 87810 87761 87693 87616 87546 87497 87478
3193.0591 87479 87480 87458 87401 87311 87205 87105 87031 86990 86981 86993
3198.3623 87016 87041 87062 87069 87059 87026 86972 86906 86834 86763 86692
3203.6658 86622 86555 86504 86482 86499 86552 86624 86692 86735 86747 86733
3208.9690 86704 86672 86640 86609 86580 86554 86536 86529 86536 86554 86575
3214.2722 86594 86605 86609 86610 86616 86632 86659 86692 86722 86743 86754
3219.5754 86757 86755 86749 86740 86725 86706 86686 86670 86664 86675 86706
3224.8789 86758 86824 86894 86955 86998 87019 87026 87029 87038 87057 87083
3230.1821 87109 87128 87138 87138 87133 87130 87136 87158 87204 87273 87361
3235.4854 87455 87537 87589 87603 87581 87540 87502 87483 87487 87503 87515
3240.7886 87511 87490 87466 87458 87477 87521 87572 87610 87621 87607 87584
3246.0920 87568 87567 87575 87576 87559 87523 87483 87458 87462 87492 87530
3251.3953 87555 87552 87519 87474 87438 87427 87447 87488 87533 87565 87575
3256.6985 87563 87538 87516 87509 87523 87551 87580 87596 87590 87563 87526
3262.0017 87488 87457 87431 87402 87367 87326 87286 87252 87228 87209 87190
3267.3052 87168 87146 87132 87132 87149 87175 87199 87209 87201 87178 87148
3272.6084 87116 87086 87051 87005 86947 86880 86814 86759 86721 86698 86684
3277.9116 86675 86669 86670 86683 86704 86722 86724 86695 86635 86555 86478
3283.2148 86424 86408 86428 86471 86516 86543 86537 86495 86416 86312 86196
3288.5183 86085 85995 85932 85896 85881 85873 85859 85830 85785 85730 85678
3293.8215 85643 85630 85634 85642 85640 85620 85584 85541 85496 85450 85398
3299.1248 85335 85267 85201 85151 85121 85104 85089 85064 85024 84975 84924
3304.4280 84882 84850 84821 84786 84737 84675 84608 84549 84507 84482 84463
3309.7314 84439 84402 84353 84296 84235 84171 84103 84035 83978 83940 83924
3315.0347 83919 83906 83867 83799 83713 83632 83579 83561 83566 83573 83559
3320.3379 83512 83433 83333 83229 83131 83048 82982 82937 82911 82901 82901
3325.6411 82904 82904 82900 82893 82884 82870 82842 82795 82725 82634 82531
3330.9446 82424 82326 82242 82174 82118 82066 82009 81947 81886 81841 81825
3336.2478 81844 81892 81954 82013 82055 82077 82085 82089 82106 82145 82212
3341.5510 82305 82418 82546 82686 82836 82992 83146 83291 83420 83536 83650
3346.8542 83774 83918 84087 84281 84495 84717 84933 85123 85276 85389 85473
3352.1577 85545 85613 85676 85725 85750 85751 85741 85737 85753 85790 85839
3357.4609 85889 85931 85962 85985 86003 86016 86022 86014 85987 85936 85863
3362.7642 85778 85690 85612 85551 85509 85482 85464 85446 85423 85394 85362
3368.0674 85335 85321 85320 85327 85331 85322 85294 85251 85201 85154 85116
3373.3708 85084 85051 85007 84943 84856 84752 84643 84544 84467 84421 84404
3378.6741 84409 84423 84436 84436 84417 84371 84294 84182 84044 83891 83744
3383.9773 83624 83543 83501 83485 83473 83450 83407 83347 83275 83199 83116
3389.2805 83026 82926 82821 82720 82634 82573 82539 82527 82524 82512 82478
3394.5840 82417 82334 82248 82187 82178 82242 82379 82571 82790 83012 83222
3399.8872 83421 83618 83821 84029 84227 84393 84506 84564 84583 84587 84599
3405.1904 84623 84648 84657 84640 84604 84567 84547 84552 84575 84601 84618
3410.4937 84625 84630 84649 84690 84755 84833 84907 84962 84991 84998 84994
3415.7971 84995 85007 85030 85057 85081 85101 85123 85157 85210 85283 85371
3421.1003 85466 85558 85637 85692 85713 85699 85663 85627 85614 85642 85710
3426.4036 85801 85892 85964 86008 86026 86025 86010 85982 85939 85882 85819
3431.7068 85759 85716 85700 85713 85753 85812 85879 85947 86013 86077 86144
3437.0103 86219 86308 86419 86554 86709 86871 87023 87150 87251 87335 87426
3442.3135 87544 87697 87868 88026 88137 88184 88176 88145 88141 88201 88332
3447.6167 88499 88654 88761 88813 88829 88841 88878 88952 89060 89185 89307
3452.9199 89413 89497 89562 89615 89665 89719 89776 89832 89881 89917 89943
3458.2234 89965 89994 90034 90084 90138 90187 90224 90251 90281 90327 90399
3463.5266 90491 90587 90668 90721 90750 90774 90816 90887 90982 91082 91167
3468.8298 91226 91260 91281 91303 91335 91380 91435 91490 91538 91572 91592
3474.1331 91601 91610 91626 91657 91704 91762 91822 91871 91899 91901 91879
3479.4365 91839 91791 91742 91699 91671 91667 91689 91728 91767 91783 91760
3484.7397 91694 91594 91480 91371 91285 91234 91225 91259 91327 91413 91498
3490.0430 91574 91642 91716 91816 91955 92134 92340 92546 92729 92876 92991
3495.3462 93099 93231 93409 93632 93874 94097 94268 94372 94413 94407 94375
3500.6497 94330 94283 94250 94250 94305 94427 94604 94805 95000 95167 95301
3505.9529 95404 95480 95529 95551 95549 95542 95553 95606 95702 95821 95933
3511.2561 96011 96047 96048 96032 96020 96026 96056 96108 96173 96238 96294
3516.5593 96336 96367 96396 96435 96485 96535 96563 96548 96478 96363 96226
3521.8628 96105 96032 96027 96082 96168 96255 96322 96358 96364 96348 96320
3527.1660 96294 96283 96297 96341 96416 96522 96653 96802 96951 97080 97166
3532.4692 97196 97170 97098 96999 96898 96818 96781 96797 96860 96948 97035
3537.7725 97101 97140 97159 97166 97171 97174 97172 97157 97119 97053 96955
3543.0759 96836 96714 96619 96573 96580 96623 96677 96731 96787 96860 96954
3548.3792 97053 97128 97152 97116 97028 96916 96818 96772 96798 96897 97047
3553.6824 97216 97368 97480 97542 97560 97554 97537 97510 97458 97366 97241
3558.9856 97115 97032 97021 97075 97151 97201 97202 97153 97074 96974 96845
3564.2891 96662 96401 96063 95701 95424 95354 95544 95924 96360 96744 97029
3569.5923 97215 97327 97393 97437 97470 97492 97502 97496 97478 97449 97408
3574.8955 97351 97277 97198 97132 97101 97111 97154 97211 97261 97298 97325
3580.1990 97351 97381 97413 97436 97442 97425 97385 97322 97233 97101 96906
3585.5022 96630 96282 95928 95682 95651 95853 96209 96599 96929 97158 97291
3590.8054 97353 97369 97351 97296 97195 97053 96893 96762 96705 96743 96857
3596.1086 96995 97109 97173 97181 97144 97071 96976 96877 96798 96766 96799
3601.4121 96895 97033 97188 97332 97444 97505 97497 97411 97248 97024 96777
3606.7153 96555 96402 96352 96420 96592 96818 97021 97144 97154 97048 96840
3612.0186 96571 96316 96151 96116 96187 96310 96428 96497 96488 96393 96228
3617.3218 96032 95868 95806 95892 96113 96405 96697 96936 97104 97208 97264
3622.6252 97292 97309 97317 97310 97269 97177 97019 96778 96438 95979 95403
3627.9285 94805 94471 94719 95428 96150 96639 96888 96965 96937 96861 96791
3633.2317 96773 96827 96934 97049 97137 97183 97190 97175 97167 97189 97249
3638.5349 97327 97388 97399 97348 97249 97140 97064 97045 97071 97093 97060
3643.8384 96942 96736 96457 96125 95765 95404 95073 94786 94518 94233 93931
3649.1416 93695 93692 94060 94746 95528 96218 96743 97095 97281 97309 97183
3654.4448 96921 96575 96261 96128 96244 96512 96786 96985 97095 97133 97128
3659.7480 97107 97091 97092 97110 97139 97165 97177 97173 97161 97160 97179
3665.0515 97213 97232 97199 97080 96855 96524 96104 95643 95228 94992 95065
3670.3547 95432 95899 96258 96418 96376 96148 95741 95155 94444 93877 93946
3675.6580 94662 95440 95964 96251 96385 96430 96438 96453 96505 96595 96704
3680.9612 96804 96880 96923 96935 96920 96890 96855 96818 96768 96683 96537
3686.2646 96308 95989 95603 95229 94976 94877 94872 94906 94992 95181 95490
3691.5679 95855 96184 96426 96584 96689 96770 96839 96890 96916 96916 96906
3696.8711 96910 96941 96994 97044 97057 97005 96880 96696 96500 96366 96351
3702.1743 96444 96575 96685 96750 96776 96778 96764 96730 96664 96551 96388
3707.4778 96182 95950 95717 95500 95296 95088 94871 94699 94686 94927 95367
3712.7810 95829 96186 96419 96562 96655 96721 96758 96751 96685 96565 96418
3718.0842 96294 96232 96227 96227 96175 96046 95867 95720 95698 95824 96011
3723.3875 96140 96141 96017 95825 95664 95635 95773 96021 96276 96463 96549
3728.6909 96534 96432 96263 96055 95847 95690 95617 95592 95527 95346 95031
3733.9941 94631 94276 94153 94358 94769 95183 95493 95695 95817 95876 95879
3739.2974 95825 95726 95608 95502 95422 95349 95238 95035 94698 94259 93971
3744.6006 94142 94609 95022 95265 95345 95278 95062 94701 94255 93867 93669
3749.9041 93653 93715 93794 93930 94223 94686 95186 95585 95835 95945 95952
3755.2073 95903 95852 95842 95863 95867 95802 95662 95501 95427 95531 95792
3760.5105 96100 96356 96526 96613 96629 96582 96473 96308 96115 95954 95901
3765.8137 95980 96131 96257 96289 96202 96005 95749 95541 95504 95663 95928
3771.1172 96190 96397 96539 96627 96673 96691 96690 96681 96666 96643 96604
3776.4204 96533 96420 96261 96066 95875 95748 95744 95865 96064 96278 96460
3781.7236 96575 96595 96504 96315 96083 95892 95816 95872 96012 96166 96287
3787.0269 96360 96400 96430 96468 96521 96584 96650 96708 96755 96789 96809
3792.3303 96814 96800 96758 96671 96527 96315 96049 95777 95587 95547 95640
3797.6335 95784 95888 95892 95754 95444 94959 94392 94011 94093 94582 95175
3802.9368 95664 95987 96145 96153 96021 95770 95461 95235 95248 95508 95866
3808.2400 96190 96427 96574 96642 96649 96619 96578 96544 96510 96449 96323
3813.5435 96096 95753 95314 94882 94656 94792 95166 95511 95683 95670 95505
3818.8467 95217 94839 94441 94181 94255 94658 95153 95555 95824 95975 96029
3824.1499 95998 95901 95766 95642 95585 95635 95783 95971 96131 96220 96222
3829.4531 96145 96021 95900 95845 95879 95955 95997 95959 95844 95680 95509
3834.7566 95363 95235 95096 94919 94709 94504 94358 94292 94292 94356 94512
3840.0598 94785 95135 95462 95669 95722 95658 95565 95546 95655 95867 96103
3845.3630 96300 96429 96481 96455 96361 96222 96071 95935 95818 95693 95506
3850.6663 95194 94704 94019 93201 92487 92299 92843 93728 94475 94950 95216
3855.9697 95365 95479 95621 95816 96040 96236 96349 96351 96242 96052 95840
3861.2729 95674 95580 95518 95424 95257 95045 94894 94941 95213 95571 95851
3866.5762 95974 95926 95713 95352 94891 94481 94370 94654 95103 95455 95614
3871.8794 95586 95414 95180 95017 95073 95373 95776 96127 96356 96468 96485
3877.1829 96430 96307 96112 95843 95531 95264 95159 95255 95461 95660 95787
3882.4861 95828 95786 95667 95486 95288 95162 95212 95455 95788 96083 96277
3887.7893 96357 96333 96214 96012 95751 95486 95306 95291 95434 95640 95820
3893.0925 95937 96007 96060 96124 96201 96268 96287 96229 96084 95866 95621
3898.3960 95417 95300 95259 95236 95181 95082 94963 94863 94808 94803 94839
3903.6992 94919 95060 95272 95537 95812 96058 96255 96400 96498 96556 96578
3909.0024 96569 96535 96483 96424 96371 96338 96337 96369 96419 96457 96446
3914.3057 96359 96197 95991 95807 95719 95759 95882 96000 96056 96045 96011
3919.6091 96014 96089 96218 96340 96397 96356 96221 96023 95821 95688 95677
3924.9124 95784 95956 96121 96229 96261 96226 96150 96064 95995 95946 95905
3930.2156 95853 95788 95730 95714 95767 95888 96045 96200 96326 96413 96457
3935.5188 96459 96420 96352 96275 96222 96217 96265 96335 96378 96349 96234
3940.8223 96055 95871 95752 95752 95870 96043 96196 96280 96284 96227 96135
3946.1255 96039 95963 95913 95884 95864 95852 95859 95903 95990 96103 96213
3951.4287 96295 96340 96359 96372 96391 96414 96428 96420 96388 96343 96301
3956.7319 96278 96283 96313 96356 96392 96404 96381 96323 96248 96185 96158
3962.0354 96176 96228 96292 96350 96392 96422 96447 96470 96490 96498 96483
3967.3386 96444 96387 96327 96283 96268 96278 96301 96318 96317 96298 96266
3972.6418 96232 96199 96169 96148 96144 96167 96220 96287 96344 96365 96344
3977.9451 96295 96247 96226 96244 96294 96355 96403 96429 96433 96427 96426
3983.2485 96437 96463 96496 96524 96538 96529 96499 96453 96402 96352 96308
3988.5518 96270 96238 96214 96201 96206 96232 96277 96335 96393 96442 96475
3993.8550 96494 96501 96500 96495 96487 96475 96462 96450 96440 96434 96431
3999.1582 96428 96426 96426
##END= 
