##TITLE= INC01
##JCAMP-DX= 4.24
##DATA TYPE= INFRARED SPECTRUM
##ORIGIN= JASCO
##OWNER= 
##DATE= 22/04/12
##TIME= 12:39:06
##SPECTROMETER/DATA SYSTEM= 
##RESOLUTION= 
##DELTAX=   0.48211674
##XUNITS= 1/CM
##YUNITS= TRANSMITTANCE
##XFACTOR= 1.00000
##YFACTOR= 1E-005
##FIRSTX=   599.7532
##LASTX=  4000.1226
##NPOINTS=     7054
##FIRSTY=      0.68934
##MAXY=      0.96280
##MINY=      0.44001
##XYDATA= (X++(Y..Y))
599.7532 68934 68144 67321 66492 65640 64697 63576 62238 60730 59171 57695
605.0565 56399 55331 54523 54027 53915 54241 55001 56124 57498 59014 60593
610.3598 62179 63703 65067 66159 66894 67248 67264 67019 66579 65981 65244
615.6631 64389 63450 62475 61518 60626 59832 59148 58547 57965 57304 56470
620.9664 55425 54222 52987 51850 50871 50021 49215 48379 47508 46668 45950
626.2697 45404 45014 44715 44454 44221 44051 44001 44104 44368 44790 45393
631.5729 46242 47429 49032 51073 53504 56220 59088 61980 64792 67445 69877
636.8762 72019 73783 75073 75814 76000 75716 75120 74385 73623 72857 72040
642.1795 71112 70076 69017 68070 67346 66878 66605 66426 66272 66137 66074
647.4828 66139 66349 66678 67079 67521 68004 68534 69102 69675 70208 70663
652.7861 71017 71256 71374 71368 71249 71035 70743 70385 69971 69515 69041
658.0894 68573 68113 67634 67091 66462 65768 65072 64449 63945 63551 63212
663.3926 62855 62431 61940 61431 60969 60610 60395 60356 60484 60571 60074
668.6959 58950 57902 57136 56514 55918 55307 54697 54127 53613 53130 52640
673.9992 52143 51713 51455 51435 51620 51885 52098 52204 52251 52340 52540
679.3025 52833 53143 53404 53611 53822 54121 54566 55175 55939 56837 57848
684.6058 58945 60104 61335 62702 64311 66257 68557 71126 73807 76427 78851
689.9091 80986 82768 84156 85159 85862 86411 86943 87488 87932 88068 87717
695.2123 86837 85525 83937 82194 80357 78487 76716 75238 74221 73691 73485
700.5156 73333 73009 72482 71969 71828 72366 73683 75618 77831 79947 81701
705.8189 83006 83923 84561 84994 85234 85271 85118 84834 84494 84135 83745
711.1222 83287 82745 82145 81546 80997 80511 80073 79664 79276 78904 78536
716.4255 78148 77729 77298 76904 76588 76347 76114 75793 75324 74737 74129
721.7288 73584 73116 72664 72128 71427 70537 69490 68339 67135 65917 64725
727.0320 63622 62679 61961 61506 61320 61393 61708 62249 62987 63875 64850
732.3353 65845 66819 67768 68725 69743 70872 72129 73491 74883 76200 77325
737.6386 78174 78719 79000 79097 79090 79027 78908 78699 78363 77888 77293
742.9419 76621 75922 75231 74565 73920 73290 72672 72078 71527 71033 70594
748.2452 70196 69823 69467 69134 68839 68596 68420 68322 68308 68368 68470
753.5485 68562 68593 68539 68410 68245 68078 67926 67787 67665 67586 67591
758.8517 67702 67888 68061 68115 67978 67644 67173 66656 66171 65755 65404
764.1550 65106 64857 64678 64596 64631 64777 65005 65273 65538 65774 65969
769.4583 66128 66267 66405 66564 66765 67020 67328 67662 67977 68219 68356
774.7616 68389 68357 68314 68295 68302 68297 68231 68072 67826 67533 67248
780.0649 67016 66850 66740 66658 66577 66475 66340 66163 65942 65684 65410
785.3682 65146 64915 64722 64556 64400 64245 64097 63966 63852 63731 63563
790.6714 63317 62993 62632 62293 62021 61822 61660 61474 61215 60868 60457
795.9747 60028 59633 59304 59046 58843 58663 58473 58246 57972 57650 57293
801.2780 56916 56540 56182 55864 55608 55440 55377 55430 55597 55862 56200
806.5813 56578 56963 57331 57669 57984 58290 58605 58930 59244 59506 59671
811.8846 59707 59606 59388 59088 58741 58375 58003 57623 57225 56796 56331
817.1879 55847 55377 54967 54665 54510 54528 54740 55164 55819 56713 57833
822.4911 59132 60533 61934 63233 64339 65191 65762 66056 66098 65926 65577
827.7944 65088 64495 63838 63162 62513 61934 61461 61125 60945 60921 61028
833.0977 61216 61426 61609 61741 61832 61912 62012 62150 62324 62520 62719
838.4010 62902 63049 63137 63143 63050 62859 62585 62255 61896 61524 61139
843.7043 60725 60261 59731 59135 58491 57830 57182 56565 55980 55416 54866
849.0076 54335 53850 53450 53174 53051 53094 53301 53651 54110 54633 55172
854.3109 55696 56195 56684 57189 57729 58304 58900 59501 60107 60741 61440
859.6141 62238 63143 64128 65135 66093 66944 67655 68228 68690 69071 69391
864.9174 69647 69822 69893 69848 69693 69445 69131 68775 68400 68031 67692
870.2207 67402 67167 66977 66804 66620 66406 66158 65879 65574 65240 64868
875.5240 64458 64022 63586 63175 62808 62484 62193 61922 61664 61419 61191
880.8273 60983 60797 60627 60468 60312 60151 59982 59807 59637 59484 59363
886.1306 59276 59216 59169 59122 59065 58999 58927 58854 58788 58737 58710
891.4338 58715 58753 58811 58868 58898 58878 58804 58685 58541 58394 58258
896.7371 58137 58025 57912 57795 57674 57557 57449 57356 57276 57204 57131
902.0404 57049 56950 56836 56710 56582 56461 56352 56245 56124 55971 55776
907.3437 55543 55287 55026 54772 54530 54297 54071 53853 53644 53444 53246
912.6470 53042 52821 52581 52325 52060 51799 51552 51325 51118 50926 50741
917.9503 50558 50380 50216 50074 49951 49830 49692 49524 49335 49148 48992
923.2535 48885 48831 48824 48855 48923 49026 49159 49311 49471 49638 49824
928.5568 50056 50357 50737 51184 51674 52176 52668 53139 53584 54001 54390
933.8601 54753 55103 55460 55847 56274 56737 57214 57683 58136 58581 59044
939.1634 59553 60121 60739 61382 62023 62633 63195 63694 64120 64468 64740
944.4667 64942 65082 65159 65167 65096 64947 64744 64536 64387 64361 64500
949.7700 64816 65284 65851 66453 67034 67560 68020 68427 68805 69181 69575
955.0732 70002 70462 70950 71458 71975 72498 73019 73532 74023 74478 74885
960.3765 75245 75567 75870 76166 76458 76737 76990 77203 77372 77500 77600
965.6798 77690 77785 77898 78035 78186 78337 78464 78547 78576 78554 78502
970.9831 78450 78432 78473 78579 78741 78935 79132 79312 79464 79588 79690
976.2864 79775 79851 79922 79989 80052 80107 80145 80162 80161 80155 80159
981.5897 80188 80244 80318 80395 80464 80522 80573 80624 80681 80741 80806
986.8929 80875 80949 81029 81107 81179 81240 81293 81343 81396 81447 81487
992.1962 81505 81496 81468 81431 81400 81384 81386 81402 81426 81451 81471
997.4995 81486 81494 81502 81514 81535 81564 81599 81636 81668 81691 81699
1002.8028 81690 81658 81601 81517 81411 81289 81164 81040 80917 80778 80596
1008.1061 80337 79966 79450 78763 77893 76860 75727 74609 73654 73006 72762
1013.4094 72941 73478 74251 75121 75973 76737 77390 77939 78397 78779 79088
1018.7126 79327 79501 79625 79720 79806 79892 79971 80024 80028 79976 79878
1024.0160 79763 79665 79606 79593 79611 79637 79643 79613 79546 79454 79359
1029.3192 79282 79230 79193 79154 79093 79008 78910 78821 78750 78687 78605
1034.6226 78475 78289 78063 77839 77657 77535 77466 77419 77363 77280 77169
1039.9258 77039 76901 76759 76613 76465 76325 76202 76103 76020 75935 75830
1045.2291 75699 75550 75401 75264 75144 75030 74915 74795 74674 74555 74433
1050.5323 74295 74129 73935 73728 73530 73355 73203 73059 72907 72741 72565
1055.8357 72394 72234 72081 71922 71737 71517 71266 71000 70740 70499 70277
1061.1389 70059 69823 69550 69228 68855 68440 67997 67545 67100 66672 66262
1066.4423 65858 65439 64988 64495 63962 63402 62832 62276 61768 61353 61086
1071.7455 61011 61149 61477 61932 62422 62857 63168 63317 63299 63134 62855
1077.0488 62499 62101 61682 61246 60784 60281 59732 59147 58556 57996 57494
1082.3521 57061 56691 56374 56102 55879 55718 55632 55621 55676 55778 55903
1087.6554 56039 56185 56360 56593 56914 57346 57892 58535 59246 59993 60749
1092.9586 61499 62234 62946 63626 64265 64855 65395 65891 66349 66776 67171
1098.2620 67525 67826 68056 68210 68292 68331 68372 68475 68699 69088 69660
1103.5652 70401 71261 72163 73018 73742 74279 74606 74739 74719 74594 74403
1108.8685 74162 73866 73502 73058 72537 71956 71342 70721 70107 69503 68902
1114.1718 68297 67687 67078 66474 65868 65245 64583 63866 63096 62290 61470
1119.4751 60659 59867 59090 58321 57553 56782 56010 55239 54472 53713 52973
1124.7783 52269 51621 51047 50555 50141 49791 49487 49214 48967 48753 48590
1130.0817 48502 48509 48622 48835 49132 49495 49914 50386 50918 51515 52169
1135.3849 52869 53602 54361 55152 55982 56851 57744 58634 59491 60296 61048
1140.6882 61759 62449 63139 63849 64589 65366 66182 67035 67923 68849 69823
1145.9915 70860 71971 73162 74426 75745 77092 78432 79723 80920 81986 82902
1151.2948 83679 84354 84979 85607 86270 86980 87725 88484 89235 89966 90669
1156.5980 91341 91976 92566 93098 93562 93951 94264 94509 94695 94832 94932
1161.9014 95005 95061 95109 95152 95188 95212 95213 95184 95124 95042 94953
1167.2046 94874 94814 94773 94742 94708 94660 94597 94520 94431 94332 94220
1172.5079 94092 93949 93794 93627 93440 93214 92929 92578 92176 91766 91404
1177.8112 91142 91002 90977 91041 91160 91315 91496 91700 91916 92121 92295
1183.1145 92419 92492 92518 92508 92471 92412 92336 92246 92149 92046 91938
1188.4177 91827 91716 91606 91497 91382 91254 91108 90948 90786 90638 90513
1193.7211 90411 90323 90237 90146 90050 89951 89851 89751 89652 89554 89459
1199.0243 89364 89267 89162 89043 88910 88764 88608 88448 88286 88128 87977
1204.3276 87836 87707 87582 87456 87320 87171 87007 86834 86655 86470 86276
1209.6309 86070 85849 85610 85354 85082 84794 84494 84183 83867 83553 83246
1214.9342 82949 82666 82399 82155 81943 81771 81642 81554 81496 81460 81436
1220.2374 81419 81405 81391 81373 81343 81293 81215 81103 80960 80790 80603
1225.5408 80406 80200 79977 79728 79446 79133 78799 78459 78126 77806 77501
1230.8440 77211 76937 76681 76445 76227 76020 75820 75621 75418 75210 74994
1236.1473 74768 74528 74277 74015 73746 73474 73197 72918 72638 72359 72087
1241.4506 71820 71555 71283 70992 70671 70318 69931 69515 69079 68628 68169
1246.7539 67708 67252 66809 66386 65987 65613 65259 64919 64583 64246 63904
1252.0571 63558 63214 62876 62548 62227 61913 61602 61291 60983 60681 60388
1257.3605 60103 59826 59554 59285 59025 58787 58590 58451 58384 58388 58455
1262.6637 58572 58719 58874 59004 59068 59020 58825 58479 58031 57578 57242
1267.9670 57129 57288 57703 58319 59080 59958 60951 62060 63263 64503 65704
1273.2703 66794 67727 68482 69050 69431 69626 69640 69490 69205 68823 68389
1278.5736 67950 67551 67241 67069 67084 67326 67813 68539 69479 70594 71843
1283.8768 73185 74580 75989 77376 78708 79961 81114 82151 83061 83840 84495
1289.1802 85042 85504 85899 86239 86519 86726 86843 86857 86760 86544 86193
1294.4834 85686 85003 84160 83223 82311 81571 81125 81026 81255 81742 82407
1299.7867 83194 84073 85022 86003 86951 87786 88438 88869 89077 89092 88951
1305.0900 88692 88346 87942 87501 87043 86580 86118 85656 85197 84744 84308
1310.3933 83897 83518 83171 82849 82538 82224 81893 81535 81137 80685 80165
1315.6965 79569 78898 78158 77353 76481 75537 74531 73503 72522 71674 71027
1320.9999 70623 70477 70592 70959 71557 72346 73271 74269 75275 76237 77111
1326.3031 77865 78477 78938 79256 79453 79564 79623 79662 79700 79752 79831
1331.6064 79955 80150 80436 80826 81314 81883 82518 83210 83954 84741 85548
1336.9097 86345 87102 87808 88466 89085 89662 90180 90619 90972 91250 91470
1342.2130 91643 91777 91876 91947 92002 92052 92101 92145 92175 92186 92182
1347.5162 92172 92166 92167 92172 92170 92158 92138 92118 92108 92113 92130
1352.8196 92149 92159 92149 92118 92070 92013 91955 91897 91836 91765 91679
1358.1228 91579 91470 91359 91250 91143 91037 90927 90805 90663 90500 90318
1363.4261 90130 89944 89763 89584 89409 89243 89091 88958 88839 88726 88609
1368.7294 88483 88350 88215 88082 87952 87827 87707 87595 87487 87372 87235
1374.0327 87069 86891 86726 86595 86498 86423 86357 86284 86196 86091 85971
1379.3359 85843 85714 85587 85460 85331 85193 85039 84865 84675 84478 84287
1384.6393 84111 83951 83801 83645 83462 83240 82986 82727 82481 82247 82012
1389.9425 81764 81499 81225 80958 80710 80478 80244 79982 79664 79292 78916
1395.2458 78618 78440 78365 78346 78333 78280 78139 77889 77560 77219 76913
1400.5491 76644 76391 76136 75878 75625 75381 75136 74867 74554 74205 73858
1405.8524 73546 73269 72999 72706 72374 72005 71615 71217 70813 70397 69962
1411.1556 69514 69065 68628 68216 67836 67492 67181 66892 66605 66308 66005
1416.4590 65712 65448 65202 64920 64514 63943 63332 62898 62717 62718 62807
1421.7622 62924 63035 63122 63181 63223 63279 63376 63525 63727 63981 64286
1427.0656 64632 65008 65400 65805 66230 66685 67168 67658 68134 68592 69042
1432.3688 69498 69964 70423 70856 71251 71620 72000 72458 73067 73807 74542
1437.6721 75184 75763 76340 76955 77612 78292 78965 79605 80205 80769 81303
1442.9753 81809 82285 82731 83142 83516 83847 84137 84394 84626 84839 85027
1448.2787 85179 85293 85383 85463 85546 85631 85713 85779 85823 85847 85859
1453.5819 85870 85885 85904 85922 85928 85904 85831 85708 85560 85412 85264
1458.8853 85107 84938 84756 84565 84369 84177 84002 83855 83735 83630 83511
1464.1885 83345 83122 82883 82684 82541 82433 82330 82212 82069 81910 81748
1469.4918 81595 81461 81348 81254 81174 81087 80965 80808 80649 80509 80384
1474.7950 80253 80095 79896 79663 79429 79219 79033 78859 78682 78493 78290
1480.0984 78071 77837 77592 77344 77098 76850 76590 76310 76010 75700 75389
1485.4016 75069 74710 74281 73786 73283 72845 72490 72155 71716 71065 70238
1490.7050 69428 68777 68276 67860 67486 67151 66873 66678 66609 66730 67116
1496.0082 67781 68621 69503 70403 71386 72489 73622 74606 75315 75753 76005
1501.3115 76152 76242 76297 76330 76358 76401 76471 76560 76617 76499 75970
1506.6147 75043 74220 73733 73416 73137 72866 72611 72371 72117 71810 71422
1511.9181 70964 70487 70056 69706 69433 69211 69002 68749 68352 67704 66840
1517.2213 66041 65552 65366 65357 65406 65410 65219 64590 63371 61981 61062
1522.5247 60657 60509 60427 60312 60102 59772 59360 58957 58643 58441 58335
1527.8279 58312 58386 58584 58925 59406 60000 60673 61394 62155 62997 64019
1533.1312 65307 66779 68193 69409 70469 71460 72426 73364 74246 75062 75859
1538.4344 76787 78075 79707 81114 81957 82520 83110 83800 84497 85090 85556
1543.7378 85954 86360 86799 87224 87564 87800 87970 88116 88263 88415 88561
1549.0410 88673 88708 88638 88482 88294 88115 87956 87806 87628 87369 86984
1554.3444 86514 86080 85756 85527 85349 85194 85047 84897 84618 83724 82031
1559.6476 80430 79277 78429 77754 77169 76611 76028 75371 74599 73686 72656
1564.9509 71606 70661 69902 69333 68914 68587 68272 67848 67174 66237 65307
1570.2542 64686 64391 64296 64311 64410 64597 64879 65243 65667 66147 66710
1575.5575 67409 68229 69009 69617 70089 70506 70914 71322 71726 72112 72472
1580.8607 72802 73108 73394 73665 73923 74169 74401 74614 74799 74951 75066
1586.1641 75144 75178 75162 75089 74956 74765 74524 74239 73913 73552 73165
1591.4674 72771 72398 72073 71825 71682 71675 71829 72163 72677 73360 74188
1596.7706 75137 76170 77248 78327 79375 80375 81320 82205 83023 83763 84417
1602.0740 84990 85488 85926 86314 86660 86974 87262 87531 87785 88026 88255
1607.3772 88473 88681 88880 89064 89229 89372 89498 89618 89740 89871 90013
1612.6805 90163 90315 90464 90606 90741 90871 90989 91077 91111 91096 91072
1617.9838 91060 91058 91053 91036 91005 90963 90916 90871 90823 90764 90684
1623.2871 90588 90506 90466 90468 90503 90560 90630 90705 90775 90838 90907
1628.5903 90999 91125 91279 91453 91633 91810 91977 92134 92284 92435 92592
1633.8937 92760 92935 93093 93172 93140 93050 92971 92929 92932 92988 93099
1639.1969 93265 93479 93729 93999 94275 94542 94792 95021 95235 95441 95644
1644.5002 95846 96038 96195 96280 96255 96134 95976 95835 95731 95669 95645
1649.8035 95655 95692 95750 95818 95877 95874 95685 95293 95034 94966 94947
1655.1068 94923 94889 94849 94812 94777 94744 94707 94663 94615 94573 94545
1660.4100 94537 94543 94544 94511 94423 94293 94171 94091 94054 94042 94040
1665.7134 94043 94052 94074 94114 94168 94218 94234 94196 94120 94048 93994
1671.0166 93952 93907 93858 93814 93787 93784 93804 93835 93847 93812 93739
1676.3199 93671 93630 93619 93631 93664 93716 93781 93852 93916 93967 94008
1681.6232 94046 94092 94159 94262 94392 94456 94356 94193 94064 93971 93895
1686.9265 93825 93759 93700 93656 93630 93619 93611 93595 93564 93515 93447
1692.2297 93363 93269 93171 93075 92985 92898 92799 92663 92497 92353 92258
1697.5331 92207 92188 92194 92223 92260 92269 92229 92199 92215 92267 92343
1702.8363 92437 92545 92661 92772 92865 92930 92968 92984 92994 93010 93038
1708.1396 93081 93138 93205 93280 93359 93439 93520 93599 93674 93740 93787
1713.4429 93803 93772 93695 93595 93508 93456 93437 93423 93351 93152 92850
1718.7462 92554 92319 92139 91993 91870 91765 91677 91602 91531 91455 91371
1724.0494 91279 91184 91090 90995 90901 90812 90735 90678 90648 90647 90677
1729.3528 90731 90795 90851 90890 90916 90939 90971 91026 91118 91243 91348
1734.6560 91394 91406 91419 91446 91490 91550 91628 91718 91809 91876 91884
1739.9594 91826 91741 91669 91630 91623 91636 91646 91629 91572 91484 91384
1745.2626 91284 91189 91097 91010 90932 90874 90846 90851 90884 90939 91014
1750.5659 91108 91217 91327 91421 91495 91551 91592 91620 91635 91643 91649
1755.8691 91664 91698 91747 91794 91824 91831 91823 91812 91815 91844 91907
1761.1725 91994 92076 92116 92110 92075 92033 91994 91962 91938 91920 91906
1766.4757 91891 91871 91842 91810 91790 91795 91828 91886 91960 92039 92100
1771.7791 92106 92041 91939 91851 91793 91761 91748 91746 91745 91737 91716
1777.0823 91685 91654 91635 91639 91670 91720 91766 91780 91747 91674 91587
1782.3856 91509 91452 91423 91420 91436 91457 91466 91455 91426 91389 91357
1787.6888 91336 91330 91334 91340 91342 91338 91332 91334 91354 91395 91442
1792.9922 91478 91499 91512 91524 91540 91556 91562 91549 91515 91465 91410
1798.2954 91363 91333 91329 91351 91390 91432 91465 91484 91483 91465 91438
1803.5988 91413 91402 91411 91439 91480 91520 91542 91537 91502 91449 91393
1808.9020 91352 91338 91354 91391 91431 91453 91447 91419 91380 91341 91312
1814.2053 91298 91300 91321 91358 91408 91463 91514 91552 91570 91565 91536
1819.5085 91487 91429 91375 91342 91340 91365 91399 91421 91420 91394 91359
1824.8119 91338 91346 91380 91424 91469 91517 91575 91650 91735 91802 91811
1830.1151 91751 91653 91558 91486 91438 91408 91394 91393 91408 91438 91478
1835.4185 91519 91548 91554 91539 91517 91514 91548 91620 91711 91788 91818
1840.7217 91787 91704 91600 91510 91457 91453 91488 91527 91532 91498 91442
1846.0250 91385 91339 91310 91299 91303 91312 91315 91307 91288 91261 91230
1851.3282 91197 91163 91129 91101 91081 91073 91073 91077 91079 91072 91052
1856.6316 91017 90966 90909 90858 90830 90830 90849 90861 90843 90789 90717
1861.9348 90664 90663 90722 90815 90898 90933 90906 90838 90767 90734 90755
1867.2382 90814 90867 90863 90783 90658 90556 90518 90542 90595 90642 90660
1872.5414 90650 90632 90638 90685 90767 90855 90917 90930 90893 90820 90738
1877.8447 90669 90628 90620 90639 90674 90707 90726 90724 90703 90667 90627
1883.1479 90593 90577 90592 90642 90712 90776 90801 90773 90702 90618 90555
1888.4513 90541 90583 90658 90732 90787 90823 90854 90884 90905 90903 90861
1893.7545 90778 90669 90560 90483 90453 90465 90497 90526 90532 90515 90490
1899.0579 90484 90527 90632 90786 90945 91053 91063 90962 90785 90595 90457
1904.3611 90404 90424 90471 90499 90484 90437 90393 90391 90447 90554 90680
1909.6644 90789 90853 90860 90815 90736 90654 90602 90613 90694 90826 90958
1914.9677 91039 91045 90988 90911 90867 90890 90967 91041 91058 91013 90943
1920.2710 90891 90885 90930 91008 91092 91163 91225 91287 91350 91397 91408
1925.5742 91373 91307 91235 91182 91144 91098 91014 90892 90763 90682 90694
1930.8776 90808 90985 91160 91273 91299 91260 91205 91179 91195 91230 91240
1936.1808 91196 91103 91002 90945 90958 91027 91106 91154 91164 91169 91220
1941.4841 91356 91558 91742 91802 91682 91409 91062 90729 90489 90397 90456
1946.7874 90622 90831 91027 91183 91288 91332 91308 91232 91149 91125 91211
1952.0907 91394 91591 91689 91612 91382 91108 90919 90885 90981 91118 91222
1957.3939 91280 91341 91467 91670 91899 92063 92089 91959 91716 91435 91188
1962.6973 91033 91002 91100 91302 91556 91797 91973 92071 92115 92163 92271
1968.0005 92475 92777 93143 93496 93721 93689 93326 92666 91870 91154 90691
1973.3038 90535 90605 90744 90811 90754 90615 90473 90365 90259 90099 89869
1978.6071 89641 89544 89695 90130 90788 91525 92168 92566 92640 92410 91997
1983.9104 91575 91314 91294 91471 91693 91780 91627 91263 90853 90606 90647
1989.2136 90941 91321 91592 91620 91397 91040 90728 90592 90642 90799 90967
1994.5170 91082 91127 91119 91085 91047 91018 91000 90996 91008 91038 91081
1999.8202 91132 91190 91258 91339 91422 91479 91471 91369 91187 90994 90894
2005.1235 90977 91257 91648 91986 92105 91926 91503 90983 90529 90250 90176
2010.4268 90267 90445 90616 90704 90675 90559 90449 90458 90655 91021 91451
2015.7301 91797 91938 91840 91574 91266 91031 90924 90932 90995 91028 90956
2021.0333 90746 90437 90139 89998 90119 90511 91071 91641 92096 92408 92629
2026.3367 92820 92970 92973 92696 92083 91238 90412 89888 89846 90272 90971
2031.6399 91650 92038 91987 91523 90825 90146 89706 89607 89811 90176 90542
2036.9432 90812 90983 91121 91297 91519 91721 91790 91646 91296 90838 90415
2042.2465 90130 90009 90009 90065 90139 90243 90412 90674 91008 91347 91591
2047.5498 91652 91479 91084 90542 89982 89547 89352 89431 89732 90129 90466
2052.8530 90607 90498 90191 89827 89570 89526 89698 89999 90301 90494 90536
2058.1563 90445 90280 90095 89918 89750 89591 89448 89348 89316 89366 89488
2063.4597 89652 89818 89945 90004 89979 89878 89727 89559 89405 89279 89181
2068.7629 89104 89053 89047 89111 89256 89463 89679 89839 89894 89833 89681
2074.0662 89486 89289 89108 88943 88790 88661 88594 88632 88796 89056 89340
2079.3694 89555 89644 89605 89496 89389 89329 89318 89324 89315 89284 89254
2084.6729 89253 89293 89361 89435 89501 89567 89655 89785 89949 90116 90240
2089.9761 90285 90243 90135 90001 89878 89787 89734 89714 89721 89752 89808
2095.2793 89886 89973 90047 90079 90042 89921 89729 89516 89356 89319 89441
2100.5825 89691 89982 90203 90271 90177 89976 89755 89581 89471 89400 89335
2105.8860 89258 89187 89155 89188 89286 89426 89573 89699 89787 89832 89836
2111.1892 89806 89752 89691 89650 89655 89722 89844 89989 90104 90137 90062
2116.4924 89893 89686 89516 89447 89511 89689 89929 90165 90346 90451 90491
2121.7957 90495 90483 90458 90398 90272 90067 89800 89519 89284 89141 89105
2127.0991 89160 89280 89448 89663 89927 90235 90559 90859 91097 91249 91307
2132.4023 91272 91149 90951 90709 90476 90310 90251 90293 90390 90474 90494
2137.7056 90438 90330 90218 90151 90170 90299 90536 90853 91190 91471 91625
2143.0088 91613 91446 91182 90900 90676 90564 90589 90755 91043 91414 91806
2148.3123 92131 92304 92272 92043 91690 91326 91058 90941 90957 91028 91060
2153.6155 91008 90907 90857 90963 91250 91634 91945 92023 91818 91424 91025
2158.9187 90775 90721 90820 91024 91332 91756 92252 92685 92887 92758 92335
2164.2219 91786 91311 91034 90966 91036 91157 91286 91417 91553 91677 91754
2169.5254 91751 91661 91504 91309 91105 90919 90778 90699 90679 90678 90636
2174.8286 90512 90329 90175 90158 90327 90628 90912 91017 90856 90474 90032
2180.1318 89720 89664 89864 90203 90509 90654 90620 90499 90426 90489 90671
2185.4351 90861 90920 90771 90447 90068 89772 89640 89661 89758 89849 89890
2190.7385 89895 89903 89936 89977 89980 89911 89777 89632 89544 89549 89625
2196.0417 89711 89743 89700 89612 89534 89499 89488 89449 89334 89142 88926
2201.3450 88770 88748 88880 89127 89401 89604 89668 89587 89426 89287 89263
2206.6482 89388 89616 89839 89951 89899 89713 89476 89278 89164 89114 89069
2211.9517 88968 88792 88577 88396 88319 88368 88504 88644 88712 88679 88585
2217.2549 88505 88497 88560 88641 88671 88618 88511 88419 88409 88502 88669
2222.5581 88845 88968 88998 88925 88769 88569 88378 88239 88172 88162 88170
2227.8613 88161 88129 88104 88128 88225 88380 88548 88679 88745 88746 88705
2233.1648 88645 88576 88497 88406 88311 88234 88198 88226 88321 88467 88630
2238.4680 88762 88823 88794 88683 88533 88401 88337 88359 88449 88557 88631
2243.7712 88643 88608 88566 88561 88603 88665 88701 88673 88581 88463 88373
2249.0745 88352 88403 88492 88568 88590 88551 88478 88419 88409 88452 88517
2254.3779 88562 88559 88520 88480 88472 88500 88533 88524 88451 88325 88191
2259.6812 88095 88059 88076 88122 88177 88231 88289 88353 88417 88466 88488
2264.9844 88475 88430 88361 88282 88207 88149 88121 88124 88152 88184 88199
2270.2876 88180 88127 88062 88014 88011 88055 88123 88174 88171 88103 87993
2275.5911 87885 87820 87811 87845 87888 87910 87900 87867 87832 87810 87801
2280.8943 87789 87754 87685 87585 87476 87385 87332 87323 87343 87370 87383
2286.1975 87377 87364 87360 87383 87432 87499 87562 87603 87606 87564 87480
2291.5007 87371 87260 87175 87138 87156 87216 87296 87370 87421 87442 87434
2296.8042 87407 87373 87347 87345 87374 87427 87486 87523 87520 87476 87406
2302.1074 87334 87274 87228 87190 87163 87157 87187 87252 87330 87377 87355
2307.4106 87256 87114 86990 86941 86995 87131 87301 87452 87555 87608 87628
2312.7139 87633 87629 87614 87589 87559 87535 87520 87505 87475 87418 87346
2318.0173 87287 87273 87321 87417 87526 87607 87639 87627 87592 87554 87522
2323.3206 87496 87478 87475 87500 87563 87667 87800 87946 88088 88213 88319
2328.6238 88408 88488 88561 88622 88663 88673 88645 88584 88501 88410 88322
2333.9270 88242 88168 88100 88041 87996 87970 87954 87937 87908 87876 87860
2339.2305 87883 87954 88060 88173 88270 88348 88415 88471 88491 88445 88315
2344.5337 88126 87931 87779 87686 87631 87584 87532 87484 87456 87462 87502
2349.8369 87567 87640 87707 87771 87851 87965 88108 88249 88345 88372 88339
2355.1401 88284 88253 88276 88357 88481 88622 88750 88841 88885 88894 88894
2360.4436 88904 88911 88877 88758 88546 88286 88057 87931 87935 88043 88195
2365.7468 88330 88403 88391 88283 88083 87815 87518 87244 87038 86925 86906
2371.0500 86961 87062 87176 87269 87309 87278 87173 87019 86850 86705 86606
2376.3533 86555 86540 86541 86541 86533 86511 86478 86438 86397 86362 86338
2381.6567 86324 86310 86287 86248 86195 86142 86103 86089 86097 86113 86118
2386.9600 86097 86049 85988 85930 85889 85865 85850 85832 85804 85773 85755
2392.2632 85763 85801 85858 85912 85939 85928 85884 85827 85781 85763 85773
2397.5664 85794 85803 85787 85745 85698 85670 85680 85724 85784 85830 85841
2402.8699 85815 85762 85704 85657 85625 85605 85589 85573 85559 85552 85556
2408.1731 85574 85602 85634 85662 85680 85684 85676 85661 85646 85634 85626
2413.4763 85623 85626 85639 85665 85700 85737 85763 85767 85748 85714 85678
2418.7795 85655 85648 85656 85666 85666 85651 85621 85582 85545 85515 85496
2424.0830 85485 85478 85475 85478 85493 85520 85554 85581 85588 85572 85542
2429.3862 85513 85499 85505 85524 85545 85561 85576 85596 85622 85646 85653
2434.6895 85633 85588 85530 85481 85453 85448 85455 85458 85447 85423 85397
2439.9927 85385 85396 85426 85460 85480 85470 85431 85375 85323 85292 85289
2445.2961 85311 85344 85376 85395 85394 85370 85327 85272 85217 85174 85146
2450.5994 85132 85126 85124 85125 85136 85159 85189 85215 85223 85209 85179
2455.9026 85146 85123 85111 85106 85098 85083 85062 85041 85027 85028 85045
2461.2058 85073 85104 85126 85130 85114 85083 85046 85009 84971 84930 84880
2466.5093 84825 84775 84743 84735 84750 84781 84814 84838 84845 84834 84808
2471.8125 84779 84760 84761 84782 84817 84856 84892 84925 84953 84971 84965
2477.1157 84922 84836 84720 84597 84495 84429 84399 84396 84408 84430 84463
2482.4189 84508 84561 84612 84653 84673 84671 84650 84613 84566 84513 84458
2487.7224 84409 84373 84353 84349 84357 84370 84382 84391 84396 84398 84397
2493.0256 84393 84387 84380 84377 84379 84385 84392 84396 84394 84381 84356
2498.3289 84318 84269 84220 84185 84176 84196 84235 84275 84299 84302 84290
2503.6321 84273 84264 84264 84269 84273 84270 84258 84236 84208 84176 84144
2508.9355 84118 84099 84089 84086 84085 84084 84083 84085 84093 84107 84122
2514.2388 84131 84128 84116 84110 84125 84170 84237 84305 84345 84337 84278
2519.5420 84183 84074 83972 83889 83827 83784 83756 83737 83725 83716 83714
2524.8452 83723 83745 83779 83816 83845 83854 83840 83807 83763 83717 83675
2530.1487 83644 83625 83624 83643 83678 83723 83763 83783 83772 83730 83665
2535.4519 83596 83543 83518 83522 83545 83573 83595 83607 83611 83609 83601
2540.7551 83582 83552 83515 83482 83462 83460 83469 83474 83463 83430 83377
2546.0583 83316 83255 83204 83165 83143 83137 83151 83183 83229 83280 83324
2551.3618 83352 83363 83361 83357 83362 83383 83419 83462 83507 83550 83590
2556.6650 83626 83655 83671 83669 83651 83620 83587 83557 83537 83532 83548
2561.9683 83589 83656 83738 83822 83894 83952 84000 84047 84094 84132 84146
2567.2715 84125 84072 84004 83943 83910 83909 83935 83971 84002 84016 84007
2572.5750 83976 83929 83873 83818 83774 83748 83746 83766 83799 83831 83847
2577.8782 83838 83805 83757 83709 83675 83663 83673 83694 83710 83706 83674
2583.1814 83615 83543 83477 83435 83423 83437 83461 83478 83479 83465 83444
2588.4849 83424 83408 83388 83356 83305 83239 83175 83134 83132 83171 83235
2593.7881 83299 83339 83345 83319 83277 83234 83199 83179 83173 83182 83200
2599.0913 83218 83223 83205 83161 83103 83051 83026 83040 83089 83152 83203
2604.3945 83218 83187 83119 83036 82964 82921 82913 82932 82959 82980 82982
2609.6980 82963 82928 82887 82851 82829 82822 82828 82842 82855 82863 82869
2615.0012 82875 82887 82901 82912 82907 82880 82831 82769 82709 82665 82641
2620.3044 82631 82623 82606 82576 82538 82503 82483 82479 82484 82487 82478
2625.6077 82451 82408 82354 82300 82253 82218 82197 82191 82196 82210 82228
2630.9111 82247 82262 82270 82269 82263 82257 82256 82263 82276 82286 82288
2636.2144 82277 82260 82241 82228 82223 82223 82227 82233 82246 82266 82290
2641.5176 82309 82314 82299 82271 82242 82228 82239 82272 82316 82356 82382
2646.8208 82390 82381 82362 82336 82311 82291 82280 82277 82277 82270 82253
2652.1243 82227 82201 82185 82184 82199 82219 82238 82251 82262 82277 82300
2657.4275 82329 82360 82388 82412 82432 82449 82464 82477 82488 82496 82501
2662.7307 82505 82510 82519 82531 82545 82555 82555 82544 82524 82505 82496
2668.0339 82501 82516 82532 82538 82531 82514 82495 82482 82477 82478 82482
2673.3374 82487 82491 82496 82503 82510 82513 82509 82496 82479 82465 82460
2678.6406 82468 82486 82508 82526 82537 82541 82543 82549 82563 82583 82604
2683.9438 82619 82622 82614 82597 82579 82564 82556 82556 82563 82576 82594
2689.2471 82613 82630 82642 82646 82644 82637 82629 82624 82623 82626 82633
2694.5505 82645 82662 82687 82719 82756 82791 82820 82841 82858 82875 82895
2699.8538 82920 82945 82967 82983 82994 83001 83005 83004 82997 82983 82967
2705.1570 82951 82939 82931 82926 82919 82909 82894 82875 82854 82836 82823
2710.4602 82816 82814 82812 82804 82786 82756 82718 82678 82642 82615 82600
2715.7637 82596 82599 82604 82605 82599 82586 82569 82549 82527 82502 82476
2721.0669 82451 82433 82425 82426 82432 82434 82430 82421 82413 82408 82406
2726.3701 82402 82390 82374 82361 82363 82384 82417 82449 82463 82455 82428
2731.6733 82397 82375 82369 82376 82386 82392 82393 82389 82385 82382 82379
2736.9768 82375 82371 82370 82373 82379 82384 82386 82384 82383 82386 82393
2742.2800 82401 82404 82400 82394 82390 82393 82403 82413 82420 82422 82424
2747.5833 82432 82447 82463 82474 82470 82448 82413 82372 82332 82299 82276
2752.8865 82261 82251 82243 82236 82227 82218 82209 82201 82194 82187 82177
2758.1899 82163 82143 82122 82104 82096 82099 82108 82118 82121 82113 82096
2763.4932 82078 82068 82070 82085 82108 82132 82150 82156 82147 82124 82094
2768.7964 82062 82035 82017 82008 82006 82008 82013 82017 82018 82014 82005
2774.0996 81995 81990 81998 82020 82055 82097 82138 82176 82208 82236 82258
2779.4031 82271 82274 82270 82267 82273 82293 82326 82362 82390 82407 82419
2784.7063 82434 82462 82500 82537 82562 82567 82556 82541 82534 82544 82569
2790.0095 82605 82644 82684 82720 82751 82773 82784 82782 82770 82754 82741
2795.3127 82736 82743 82762 82791 82822 82849 82866 82871 82870 82868 82874
2800.6162 82892 82921 82958 82996 83031 83060 83083 83100 83111 83118 83123
2805.9194 83129 83141 83162 83195 83236 83281 83326 83365 83396 83421 83442
2811.2227 83467 83502 83554 83623 83701 83778 83840 83880 83899 83908 83921
2816.5259 83950 84000 84065 84132 84187 84225 84249 84267 84292 84330 84380
2821.8293 84433 84478 84510 84527 84538 84552 84577 84615 84662 84711 84752
2827.1326 84782 84797 84801 84796 84788 84783 84786 84802 84829 84862 84890
2832.4358 84906 84909 84908 84917 84944 84990 85044 85088 85109 85107 85090
2837.7390 85074 85073 85090 85122 85161 85200 85237 85272 85304 85334 85360
2843.0425 85383 85407 85435 85466 85493 85503 85487 85444 85384 85324 85283
2848.3457 85267 85268 85269 85255 85223 85183 85154 85150 85176 85221 85263
2853.6489 85288 85287 85265 85233 85203 85182 85169 85160 85152 85143 85133
2858.9521 85118 85097 85065 85020 84966 84913 84868 84839 84824 84816 84807
2864.2556 84791 84768 84739 84706 84672 84640 84612 84592 84583 84582 84586
2869.5588 84589 84587 84575 84554 84522 84482 84437 84393 84356 84327 84303
2874.8621 84281 84257 84234 84211 84191 84173 84155 84141 84136 84143 84160
2880.1653 84180 84191 84189 84177 84167 84168 84185 84212 84242 84262 84266
2885.4688 84255 84231 84199 84167 84139 84120 84111 84113 84127 84153 84186
2890.7720 84220 84246 84264 84277 84295 84326 84371 84419 84460 84486 84499
2896.0752 84507 84515 84524 84531 84531 84528 84527 84533 84544 84554 84557
2901.3784 84551 84542 84539 84547 84569 84601 84640 84684 84728 84770 84806
2906.6819 84834 84859 84887 84924 84969 85017 85056 85080 85088 85088 85091
2911.9851 85109 85147 85206 85278 85356 85430 85490 85527 85536 85516 85475
2917.2883 85432 85407 85418 85469 85554 85652 85741 85803 85830 85828 85812
2922.5916 85798 85800 85823 85868 85931 86005 86086 86166 86235 86285 86310
2927.8950 86313 86301 86288 86282 86288 86302 86321 86344 86372 86407 86448
2933.1982 86484 86509 86517 86517 86519 86539 86579 86633 86685 86721 86730
2938.5015 86716 86689 86663 86652 86662 86692 86736 86784 86827 86858 86874
2943.8047 86874 86856 86820 86770 86711 86655 86610 86581 86565 86555 86542
2949.1082 86521 86491 86453 86414 86380 86354 86337 86325 86311 86286 86244
2954.4114 86186 86117 86042 85974 85919 85886 85877 85885 85901 85914 85915
2959.7146 85901 85876 85844 85809 85774 85743 85723 85720 85732 85756 85779
2965.0178 85794 85795 85784 85764 85740 85715 85692 85676 85674 85692 85737
2970.3213 85811 85910 86023 86135 86229 86295 86334 86355 86368 86380 86395
2975.6245 86412 86435 86469 86517 86576 86634 86675 86691 86682 86658 86634
2980.9277 86619 86614 86616 86622 86630 86643 86662 86684 86703 86713 86710
2986.2310 86696 86675 86652 86629 86604 86573 86529 86470 86398 86321 86250
2991.5344 86198 86176 86187 86227 86282 86335 86367 86367 86332 86270 86190
2996.8376 86104 86017 85932 85850 85774 85705 85648 85602 85564 85526 85482
3002.1409 85426 85360 85295 85238 85197 85172 85155 85140 85121 85097 85072
3007.4441 85044 85012 84975 84937 84901 84875 84857 84840 84815 84776 84727
3012.7476 84686 84670 84690 84740 84803 84855 84876 84862 84822 84774 84735
3018.0508 84714 84715 84731 84758 84793 84835 84883 84930 84967 84983 84974
3023.3540 84947 84912 84885 84875 84887 84918 84967 85030 85100 85169 85223
3028.6572 85254 85257 85240 85213 85184 85159 85139 85123 85112 85109 85117
3033.9607 85134 85158 85186 85223 85274 85342 85421 85500 85563 85602 85620
3039.2639 85628 85643 85674 85723 85778 85825 85850 85846 85816 85772 85729
3044.5671 85702 85700 85724 85768 85826 85884 85934 85965 85972 85953 85914
3049.8704 85865 85821 85792 85783 85789 85798 85798 85778 85739 85683 85620
3055.1738 85558 85504 85462 85434 85422 85426 85444 85474 85515 85563 85614
3060.4771 85667 85719 85770 85818 85863 85898 85919 85918 85896 85855 85802
3065.7803 85744 85686 85630 85580 85537 85504 85477 85448 85409 85351 85275
3071.0835 85190 85111 85051 85017 85006 85005 85003 84992 84973 84958 84960
3076.3870 84985 85028 85073 85103 85107 85082 85030 84958 84869 84766 84655
3081.6902 84548 84458 84392 84347 84316 84287 84256 84225 84199 84187 84190
3086.9934 84206 84228 84248 84256 84246 84219 84179 84141 84115 84113 84136
3092.2966 84176 84220 84257 84277 84281 84275 84271 84278 84306 84357 84431
3097.6001 84524 84628 84735 84833 84917 84983 85036 85081 85127 85180 85245
3102.9033 85326 85424 85538 85660 85778 85886 85978 86057 86126 86188 86240
3108.2065 86278 86299 86309 86315 86326 86344 86366 86385 86392 86379 86342
3113.5098 86278 86193 86099 86015 85957 85935 85944 85967 85988 85993 85980
3118.8132 85955 85927 85900 85876 85850 85821 85787 85749 85707 85663 85616
3124.1165 85564 85508 85448 85389 85336 85292 85254 85218 85179 85138 85096
3129.4197 85058 85029 85009 84995 84988 84991 85008 85039 85081 85125 85161
3134.7229 85187 85202 85212 85219 85220 85215 85203 85188 85176 85174 85187
3140.0264 85211 85243 85275 85305 85330 85352 85372 85393 85416 85441 85466
3145.3296 85485 85495 85491 85477 85461 85454 85461 85478 85495 85497 85473
3150.6328 85421 85346 85260 85173 85095 85034 84996 84984 84999 85035 85082
3155.9360 85127 85160 85175 85173 85160 85146 85139 85146 85162 85174 85168
3161.2395 85135 85081 85025 84991 84994 85031 85082 85121 85126 85093 85030
3166.5427 84958 84895 84851 84825 84807 84789 84765 84733 84698 84664 84636
3171.8459 84612 84590 84567 84541 84507 84465 84413 84357 84306 84267 84247
3177.1492 84239 84234 84216 84178 84122 84058 83998 83949 83914 83889 83871
3182.4526 83861 83858 83863 83870 83873 83867 83851 83829 83809 83794 83785
3187.7559 83777 83769 83760 83756 83761 83777 83800 83826 83848 83870 83895
3193.0591 83933 83985 84049 84113 84166 84205 84233 84264 84307 84363 84421
3198.3623 84461 84467 84439 84389 84340 84316 84330 84383 84461 84545 84619
3203.6658 84677 84719 84752 84782 84812 84838 84855 84860 84852 84836 84822
3208.9690 84820 84834 84864 84903 84937 84955 84952 84935 84916 84908 84919
3214.2722 84947 84984 85026 85069 85116 85164 85205 85229 85228 85205 85174
3219.5754 85151 85149 85168 85200 85233 85256 85265 85261 85247 85229 85213
3224.8789 85202 85199 85203 85210 85214 85210 85197 85173 85142 85112 85093
3230.1821 85093 85117 85162 85218 85267 85295 85296 85273 85236 85201 85178
3235.4854 85171 85177 85189 85195 85188 85164 85127 85087 85062 85062 85087
3240.7886 85123 85144 85132 85079 84993 84890 84788 84697 84620 84564 84536
3246.0920 84540 84571 84610 84631 84615 84559 84480 84403 84346 84311 84285
3251.3953 84252 84204 84140 84068 83994 83925 83863 83816 83789 83779 83776
3256.6985 83763 83722 83650 83557 83468 83403 83372 83365 83359 83333 83275
3262.0017 83190 83093 82998 82910 82828 82747 82666 82583 82501 82418 82331
3267.3052 82239 82144 82053 81970 81894 81820 81744 81664 81587 81524 81483
3272.6084 81467 81468 81472 81465 81435 81376 81298 81216 81154 81128 81145
3277.9116 81194 81254 81309 81352 81385 81419 81461 81509 81555 81596 81634
3283.2148 81684 81757 81859 81987 82126 82261 82382 82486 82573 82649 82722
3288.5183 82799 82887 82995 83123 83269 83423 83569 83694 83789 83852 83893
3293.8215 83928 83972 84034 84111 84193 84267 84322 84355 84368 84369 84366
3299.1248 84366 84374 84388 84401 84401 84372 84309 84212 84093 83969 83852
3304.4280 83748 83653 83561 83459 83339 83198 83039 82875 82716 82569 82432
3309.7314 82296 82148 81979 81785 81569 81337 81097 80861 80641 80446 80280
3315.0347 80139 80017 79908 79816 79747 79713 79716 79755 79825 79922 80045
3320.3379 80196 80378 80593 80841 81121 81433 81775 82140 82520 82906 83288
3325.6411 83661 84022 84370 84702 85014 85302 85561 85784 85971 86124 86253
3330.9446 86366 86472 86567 86641 86682 86677 86625 86531 86407 86263 86106
3336.2478 85942 85772 85597 85417 85230 85035 84828 84613 84392 84177 83977
3341.5510 83800 83647 83514 83397 83297 83218 83167 83148 83158 83183 83208
3346.8542 83218 83211 83191 83167 83147 83141 83154 83195 83272 83392 83559
3352.1577 83770 84022 84308 84626 84975 85354 85758 86181 86617 87058 87498
3357.4609 87929 88343 88731 89089 89416 89717 89997 90255 90489 90696 90881
3362.7642 91057 91238 91430 91629 91819 91984 92115 92218 92305 92383 92456
3368.0674 92516 92557 92575 92575 92566 92563 92576 92612 92667 92731 92787
3373.3708 92827 92847 92855 92861 92872 92886 92902 92919 92942 92976 93016
3378.6741 93050 93061 93040 92995 92951 92934 92958 93013 93075 93114 93118
3383.9773 93095 93067 93055 93069 93098 93128 93142 93140 93129 93120 93121
3389.2805 93128 93135 93134 93124 93110 93098 93093 93092 93089 93075 93050
3394.5840 93015 92978 92944 92915 92889 92859 92824 92787 92754 92733 92725
3399.8872 92726 92728 92728 92728 92732 92749 92779 92816 92854 92887 92913
3405.1904 92935 92957 92973 92974 92947 92887 92804 92719 92651 92611 92595
3410.4937 92584 92563 92524 92480 92448 92442 92465 92504 92543 92571 92581
3415.7971 92575 92551 92508 92446 92370 92298 92247 92235 92263 92316 92368
3421.1003 92394 92382 92337 92274 92210 92160 92131 92127 92147 92187 92238
3426.4036 92286 92316 92314 92280 92225 92164 92114 92080 92059 92041 92020
3431.7068 91997 91980 91976 91988 92008 92027 92036 92034 92020 91998 91969
3437.0103 91934 91897 91866 91849 91846 91852 91852 91838 91808 91772 91749
3442.3135 91749 91774 91808 91834 91837 91813 91769 91717 91668 91630 91607
3447.6167 91600 91607 91622 91642 91661 91673 91678 91681 91685 91694 91705
3452.9199 91713 91715 91714 91716 91725 91735 91736 91715 91668 91606 91551
3458.2234 91525 91544 91604 91689 91772 91822 91819 91756 91649 91529 91436
3463.5266 91392 91401 91444 91492 91522 91527 91518 91510 91513 91525 91536
3468.8298 91538 91533 91529 91533 91542 91546 91533 91495 91437 91373 91318
3474.1331 91283 91267 91265 91272 91284 91301 91325 91354 91385 91414 91436
3479.4365 91446 91443 91422 91383 91331 91278 91240 91232 91254 91294 91332
3484.7397 91354 91351 91332 91307 91286 91269 91252 91234 91218 91217 91238
3490.0430 91281 91331 91370 91379 91352 91297 91232 91175 91141 91134 91155
3495.3462 91195 91243 91283 91302 91291 91255 91204 91153 91115 91093 91083
3500.6497 91075 91066 91058 91061 91079 91108 91137 91159 91174 91193 91223
3505.9529 91262 91298 91310 91281 91206 91098 90989 90913 90891 90918 90969
3511.2561 91013 91028 91011 90976 90945 90935 90949 90977 91005 91021 91024
3516.5593 91016 91004 90991 90982 90980 90989 91005 91022 91030 91026 91014
3521.8628 91004 91006 91020 91037 91045 91039 91026 91018 91022 91040 91062
3527.1660 91078 91079 91062 91032 90995 90959 90930 90913 90907 90909 90912
3532.4692 90912 90912 90915 90926 90944 90964 90976 90979 90974 90969 90966
3537.7725 90957 90935 90894 90844 90800 90781 90792 90825 90861 90886 90896
3543.0759 90897 90898 90900 90897 90876 90834 90778 90722 90683 90667 90670
3548.3792 90683 90694 90698 90695 90692 90698 90719 90752 90782 90796 90790
3553.6824 90773 90761 90764 90783 90805 90813 90797 90753 90691 90626 90574
3558.9856 90548 90558 90606 90682 90762 90823 90845 90822 90763 90691 90630
3564.2891 90600 90609 90663 90760 90891 91028 91127 91153 91107 91015 90916
3569.5923 90835 90786 90764 90756 90745 90729 90716 90720 90748 90786 90810
3574.8955 90801 90759 90707 90674 90678 90713 90755 90778 90772 90745 90718
3580.1990 90711 90729 90759 90782 90777 90736 90668 90593 90536 90515 90539
3585.5022 90609 90714 90834 90943 91016 91041 91020 90961 90881 90801 90737
3590.8054 90700 90691 90703 90720 90723 90701 90659 90613 90580 90572 90584
3596.1086 90604 90621 90633 90650 90680 90727 90780 90815 90807 90753 90675
3601.4121 90605 90569 90571 90597 90627 90653 90677 90707 90744 90783 90808
3606.7153 90811 90792 90765 90742 90727 90710 90685 90655 90626 90606 90604
3612.0186 90623 90660 90702 90730 90728 90689 90623 90549 90489 90466 90495
3617.3218 90575 90686 90789 90844 90840 90794 90740 90698 90670 90651 90632
3622.6252 90610 90590 90579 90584 90610 90652 90702 90752 90796 90833 90860
3627.9285 90866 90826 90740 90650 90597 90580 90580 90583 90578 90560 90533
3633.2317 90509 90504 90520 90548 90572 90583 90578 90561 90539 90514 90486
3638.5349 90456 90425 90397 90377 90366 90363 90365 90373 90391 90422 90461
3643.8384 90498 90526 90540 90544 90551 90573 90620 90690 90779 90892 91034
3649.1416 91179 91249 91159 90920 90645 90439 90334 90314 90348 90404 90461
3654.4448 90508 90543 90561 90549 90498 90422 90347 90295 90279 90298 90340
3659.7480 90383 90409 90418 90419 90427 90446 90470 90486 90487 90474 90454
3665.0515 90432 90410 90390 90373 90373 90402 90471 90576 90688 90758 90746
3670.3547 90661 90554 90466 90403 90354 90311 90271 90244 90254 90336 90480
3675.6580 90587 90607 90573 90519 90462 90407 90359 90324 90303 90298 90307
3680.9612 90325 90350 90376 90394 90394 90372 90333 90290 90255 90235 90228
3686.2646 90233 90253 90306 90404 90534 90651 90718 90732 90711 90670 90620
3691.5679 90561 90493 90417 90340 90273 90226 90208 90217 90243 90273 90295
3696.8711 90300 90282 90246 90203 90171 90166 90191 90240 90287 90306 90288
3702.1743 90257 90242 90256 90288 90321 90337 90325 90291 90253 90232 90240
3707.4778 90282 90356 90444 90523 90576 90608 90641 90692 90750 90778 90746
3712.7810 90666 90573 90490 90424 90371 90328 90293 90265 90248 90245 90256
3718.0842 90278 90308 90345 90392 90455 90536 90623 90683 90676 90585 90445
3723.3875 90313 90228 90205 90237 90299 90352 90370 90358 90344 90355 90399
3728.6909 90465 90533 90580 90584 90531 90423 90300 90221 90223 90300 90431
3733.9941 90594 90755 90860 90857 90749 90588 90419 90268 90150 90071 90029
3739.2974 90016 90019 90023 90015 89990 89953 89912 89880 89874 89936 90101
3744.6006 90306 90440 90496 90514 90511 90488 90436 90343 90213 90078 89986
3749.9041 89959 89985 90049 90138 90225 90270 90261 90220 90175 90148 90152
3755.2073 90190 90256 90324 90371 90384 90368 90328 90265 90182 90096 90035
3760.5105 90015 90034 90079 90135 90187 90229 90258 90271 90268 90240 90184
3765.8137 90111 90044 90001 89988 90000 90027 90056 90070 90060 90032 90006
3771.1172 89991 89987 89991 89996 90001 90005 90011 90023 90043 90070 90102
3776.4204 90133 90158 90176 90186 90190 90186 90169 90137 90092 90043 90000
3781.7236 89973 89972 89999 90048 90103 90139 90138 90097 90030 89959 89902
3787.0269 89865 89848 89844 89849 89863 89886 89916 89945 89967 89976 89974
3792.3303 89971 89976 89993 90016 90038 90050 90051 90043 90036 90032 90030
3797.6335 90023 90010 89989 89961 89932 89910 89916 89972 90069 90162 90216
3802.9368 90229 90214 90182 90146 90114 90091 90079 90069 90046 90010 89978
3808.2400 89965 89976 90005 90039 90058 90053 90023 89982 89947 89926 89919
3813.5435 89919 89923 89934 89963 90016 90073 90101 90091 90055 90003 89938
3818.8467 89856 89755 89651 89594 89652 89814 89981 90086 90122 90107 90063
3824.1499 90006 89949 89903 89872 89857 89849 89836 89807 89765 89719 89687
3829.4531 89688 89742 89853 89996 90116 90169 90159 90124 90096 90091 90105
3834.7566 90122 90128 90129 90140 90183 90259 90342 90392 90386 90336 90262
3840.0598 90182 90111 90060 90038 90046 90079 90119 90142 90128 90078 90015
3845.3630 89961 89930 89922 89932 89951 89973 89994 90013 90029 90039 90040
3850.6663 90031 90023 90037 90101 90223 90345 90353 90233 90072 89931 89828
3855.9697 89765 89739 89748 89783 89830 89875 89911 89939 89964 89993 90029
3861.2729 90066 90095 90108 90107 90100 90097 90100 90101 90086 90053 90012
3866.5762 89975 89950 89940 89945 89962 89982 89992 89986 89972 89959 89949
3871.8794 89948 89962 90000 90063 90123 90143 90105 90034 89960 89910 89891
3877.1829 89898 89916 89931 89937 89941 89955 89982 90003 89997 89966 89922
3882.4861 89879 89844 89815 89789 89769 89771 89818 89905 89994 90049 90059
3887.7893 90028 89973 89911 89858 89828 89831 89866 89921 89973 90007 90016
3893.0925 90001 89964 89913 89862 89828 89822 89846 89891 89942 89988 90020
3898.3960 90035 90042 90052 90070 90091 90106 90106 90089 90064 90044 90041
3903.6992 90055 90078 90098 90108 90109 90104 90093 90074 90042 89998 89948
3909.0024 89903 89874 89869 89883 89908 89934 89951 89955 89944 89923 89901
3914.3057 89887 89891 89914 89949 89978 89983 89957 89914 89872 89849 89852
3919.6091 89880 89919 89952 89964 89954 89931 89903 89885 89887 89915 89960
3924.9124 90005 90032 90032 90007 89965 89918 89880 89860 89861 89874 89886
3930.2156 89887 89876 89865 89865 89882 89907 89928 89934 89924 89904 89879
3935.5188 89857 89840 89834 89840 89862 89892 89922 89936 89928 89899 89862
3940.8223 89829 89811 89805 89802 89787 89757 89717 89681 89658 89655 89676
3946.1255 89721 89787 89866 89940 89988 89993 89949 89864 89769 89695 89667
3951.4287 89692 89757 89835 89897 89923 89910 89868 89817 89770 89733 89705
3956.7319 89683 89665 89650 89640 89635 89634 89633 89632 89630 89628 89627
3962.0354 89630 89641 89664 89701 89752 89809 89860 89894 89903 89888 89856
3967.3386 89817 89786 89770 89771 89782 89789 89782 89762 89736 89719 89721
3972.6418 89743 89778 89819 89857 89887 89903 89900 89873 89829 89786 89764
3977.9451 89776 89822 89881 89930 89950 89940 89914 89888 89876 89878 89886
3983.2485 89892 89892 89887 89881 89880 89885 89894 89898 89886 89851 89792
3988.5518 89720 89657 89627 89646 89712 89805 89899 89975 90026 90060 90085
3993.8550 90102 90106 90087 90042 89981 89922 89882 89867 89872 89883 89886
3999.1582 89870 89840 89803
##END= 
