##TITLE= INCCHINIDINASOLFATO
##JCAMP-DX= 4.24
##DATA TYPE= INFRARED SPECTRUM
##ORIGIN= JASCO
##OWNER= 
##DATE= 22/04/13
##TIME= 16:05:15
##SPECTROMETER/DATA SYSTEM= 
##RESOLUTION= 
##DELTAX=   0.48211674
##XUNITS= 1/CM
##YUNITS= TRANSMITTANCE
##XFACTOR= 1.00000
##YFACTOR= 1E-005
##FIRSTX=   599.7532
##LASTX=  4000.1226
##NPOINTS=     7054
##FIRSTY=      0.72890
##MAXY=      0.96510
##MINY=      0.50722
##XYDATA= (X++(Y..Y))
599.7532 72890 71844 70815 69855 68954 68071 67182 66307 65495 64801 64256
605.0565 63866 63641 63621 63877 64471 65408 66605 67911 69152 70195 70970
610.3598 71464 71695 71707 71562 71340 71115 70920 70724 70443 69986 69304
615.6631 68427 67452 66510 65720 65153 64811 64642 64560 64470 64276 63911
620.9664 63355 62668 61972 61402 61042 60893 60887 60942 61024 61168 61453
626.2697 61939 62631 63479 64418 65406 66435 67517 68655 69823 70964 72002
631.5729 72864 73492 73863 73983 73888 73630 73264 72844 72408 71977 71548
636.8762 71094 70592 70040 69490 69047 68839 68957 69411 70114 70929 71740
642.1795 72513 73306 74210 75267 76420 77525 78428 79049 79418 79643 79833
647.4828 80042 80259 80443 80582 80704 80851 81029 81179 81198 81001 80577
652.7861 80011 79452 79042 78861 78901 79088 79327 79543 79702 79805 79865
658.0894 79875 79811 79647 79387 79079 78801 78631 78617 78765 79043 79398
663.3926 79768 80098 80351 80516 80608 80639 80594 80388 79817 78645 77296
668.6959 76989 77706 78637 79388 79833 79910 79603 78976 78190 77442 76870
673.9992 76499 76248 76001 75674 75277 74916 74761 74973 75648 76795 78340
679.3025 80146 82021 83727 85007 85662 85650 85140 84456 83908 83613 83409
684.6058 82950 81922 80295 78394 76750 75819 75810 76678 78223 80194 82315
689.9091 84252 85598 85950 85102 83242 81002 79267 78842 80118 82931 86619
695.2123 90267 93010 94273 93894 92129 89551 86872 84733 83531 83347 83983
700.5156 85062 86157 86925 87207 87056 86674 86301 86093 86060 86085 86002
705.8189 85699 85180 84554 83963 83508 83210 83035 82938 82898 82902 82905
711.1222 82810 82490 81843 80845 79547 78042 76405 74683 72912 71173 69624
716.4255 68484 67967 68207 69219 70918 73162 75778 78556 81243 83601 85482
721.7288 86865 87824 88466 88889 89168 89359 89503 89626 89743 89852 89942
727.0320 90001 90021 90005 89965 89911 89854 89794 89733 89673 89619 89579
732.3353 89557 89550 89552 89556 89558 89548 89512 89432 89294 89092 88840
737.6386 88555 88258 87960 87670 87395 87145 86927 86733 86534 86289 85957
742.9419 85520 84983 84376 83733 83084 82447 81839 81272 80764 80328 79969
748.2452 79675 79424 79191 78969 78767 78615 78544 78577 78710 78914 79136
753.5485 79323 79432 79442 79352 79175 78924 78611 78254 77886 77565 77354
758.8517 77286 77332 77400 77367 77135 76671 76017 75274 74556 73945 73479
764.1550 73158 72975 72942 73097 73496 74190 75199 76487 77958 79479 80920
769.4583 82198 83302 84270 85155 85981 86733 87364 87837 88150 88345 88485
774.7616 88628 88800 88994 89175 89308 89376 89382 89339 89254 89117 88903
780.0649 88594 88206 87795 87445 87236 87211 87361 87635 87965 88290 88563
785.3682 88750 88825 88767 88580 88296 87971 87655 87375 87111 86820 86457
790.6714 86005 85481 84924 84374 83853 83364 82886 82384 81808 81106 80241
795.9747 79209 78067 76936 75984 75388 75288 75734 76667 77931 79311 80599
801.2780 81645 82391 82863 83142 83317 83450 83568 83676 83770 83853 83934
806.5813 84022 84122 84237 84360 84488 84613 84721 84799 84834 84818 84754
811.8846 84652 84525 84382 84225 84048 83846 83620 83386 83166 82979 82830
817.1879 82698 82553 82363 82119 81839 81554 81292 81062 80850 80630 80379
822.4911 80077 79710 79263 78729 78110 77421 76684 75911 75109 74288 73479
827.7944 72725 72049 71415 70725 69873 68845 67792 67027 66907 67670 69298
833.0977 71505 73850 75917 77457 78433 78959 79207 79317 79365 79365 79302
838.4010 79151 78901 78553 78132 77672 77209 76764 76334 75895 75424 74913
843.7043 74378 73857 73388 73002 72719 72550 72508 72600 72822 73145 73515
849.0076 73870 74146 74297 74290 74101 73709 73096 72255 71197 69948 68546
854.3109 67048 65529 64091 62862 61972 61532 61605 62189 63219 64585 66150
859.6141 67774 69327 70698 71803 72590 73044 73185 73068 72779 72415 72070
864.9174 71816 71697 71739 71974 72453 73241 74389 75900 77713 79709 81748
870.2207 83707 85510 87120 88522 89701 90634 91302 91701 91860 91828 91669
875.5240 91436 91168 90887 90604 90324 90051 89789 89542 89314 89112 88940
880.8273 88794 88659 88512 88323 88069 87736 87318 86812 86214 85524 84751
886.1306 83923 83096 82347 81764 81428 81390 81662 82207 82954 83812 84690
891.4338 85520 86260 86897 87431 87865 88196 88419 88535 88557 88512 88433
896.7371 88345 88262 88184 88103 88014 87913 87801 87681 87547 87392 87205
902.0404 86982 86723 86443 86158 85883 85621 85362 85087 84772 84404 83985
907.3437 83534 83079 82643 82237 81847 81445 80988 80438 79766 78968 78071
912.6470 77132 76240 75497 74993 74787 74884 75242 75789 76448 77157 77873
917.9503 78567 79207 79762 80203 80510 80672 80684 80544 80251 79815 79258
923.2535 78616 77928 77229 76545 75895 75298 74768 74314 73933 73606 73312
928.5568 73023 72715 72352 71888 71269 70458 69458 68328 67186 66183 65466
933.8601 65142 65260 65798 66679 67791 69011 70232 71368 72365 73189 73821
939.1634 74256 74500 74581 74540 74432 74313 74233 74229 74322 74509 74764
944.4667 75037 75268 75403 75413 75304 75113 74902 74742 74707 74859 75238
949.7700 75845 76635 77527 78433 79282 80046 80732 81359 81931 82425 82800
955.0732 83025 83102 83067 82981 82905 82881 82926 83044 83226 83456 83709
960.3765 83951 84147 84266 84294 84234 84099 83903 83660 83372 83035 82634
965.6798 82146 81544 80808 79937 78954 77907 76869 75931 75201 74794 74809
970.9831 75299 76240 77524 78977 80406 81647 82606 83263 83651 83829 83849
976.2864 83747 83545 83255 82889 82462 81988 81487 80975 80463 79954 79437
981.5897 78897 78323 77713 77080 76439 75802 75167 74519 73843 73132 72392
986.8929 71642 70912 70233 69643 69187 68906 68829 68953 69232 69582 69899
992.1962 70092 70102 69920 69578 69133 68647 68175 67765 67467 67330 67402
997.4995 67710 68246 68955 69742 70500 71142 71626 71960 72192 72379 72567
1002.8028 72778 73004 73216 73375 73439 73374 73156 72776 72237 71557 70768
1008.1061 69906 69011 68112 67227 66366 65542 64779 64112 63573 63172 62888
1013.4094 62669 62447 62159 61761 61224 60537 59694 58705 57600 56437 55298
1018.7126 54282 53481 52972 52805 53005 53570 54474 55665 57061 58562 60060
1024.0160 61454 62660 63617 64289 64659 64737 64557 64177 63667 63090 62494
1029.3192 61900 61308 60714 60117 59520 58928 58334 57725 57085 56404 55686
1034.6226 54948 54212 53502 52833 52222 51685 51244 50923 50745 50722 50855
1039.9258 51132 51529 52017 52560 53118 53646 54094 54417 54585 54599 54490
1045.2291 54320 54162 54088 54148 54375 54781 55370 56136 57070 58154 59358
1050.5323 60642 61955 63246 64466 65578 66557 67392 68080 68622 69018 69261
1055.8357 69346 69271 69045 68692 68243 67734 67199 66666 66163 65723 65385
1061.1389 65189 65164 65315 65627 66060 66566 67095 67603 68049 68401 68631
1066.4423 68717 68641 68393 67974 67398 66699 65923 65131 64382 63734 63236
1071.7455 62923 62820 62925 63207 63600 64015 64353 64531 64502 64263 63854
1077.0488 63343 62817 62362 62051 61940 62052 62379 62879 63487 64126 64729
1082.3521 65246 65650 65928 66074 66079 65935 65637 65194 64628 63977 63280
1087.6554 62575 61886 61221 60576 59942 59312 58688 58083 57510 56985 56521
1092.9586 56128 55823 55623 55546 55601 55782 56076 56457 56896 57367 57842
1098.2620 58298 58723 59117 59494 59875 60283 60731 61225 61757 62317 62892
1103.5652 63471 64045 64609 65161 65697 66213 66704 67159 67570 67932 68245
1108.8685 68512 68734 68912 69041 69113 69126 69081 68988 68865 68730 68605
1114.1718 68502 68428 68383 68358 68342 68326 68303 68276 68254 68250 68282
1119.4751 68363 68504 68709 68974 69294 69657 70055 70477 70917 71371 71838
1124.7783 72321 72813 73305 73776 74207 74588 74928 75253 75599 75994 76450
1130.0817 76953 77479 77998 78487 78931 79326 79667 79955 80191 80374 80504
1135.3849 80578 80592 80550 80467 80372 80297 80266 80283 80327 80363 80354
1140.6882 80274 80119 79902 79653 79403 79182 79015 78923 78922 79031 79266
1145.9915 79642 80161 80813 81573 82405 83271 84135 84971 85762 86498 87172
1151.2948 87778 88315 88780 89175 89508 89788 90022 90214 90366 90477 90551
1156.5980 90600 90640 90683 90732 90775 90791 90756 90647 90451 90168 89810
1161.9014 89406 88997 88628 88335 88138 88034 88011 88053 88159 88333 88583
1167.2046 88905 89282 89684 90079 90440 90756 91028 91260 91458 91624 91750
1172.5079 91831 91862 91850 91805 91741 91662 91564 91433 91257 91031 90760
1177.8112 90455 90122 89766 89390 89005 88637 88323 88097 87986 87998 88130
1183.1145 88368 88695 89089 89524 89975 90417 90836 91227 91588 91917 92208
1188.4177 92453 92646 92785 92872 92910 92899 92839 92732 92584 92404 92199
1193.7211 91971 91713 91417 91072 90678 90244 89791 89345 88927 88548 88202
1199.0243 87869 87526 87156 86760 86357 85978 85660 85438 85337 85375 85558
1204.3276 85881 86327 86870 87476 88110 88736 89322 89844 90287 90647 90928
1209.6309 91141 91296 91400 91452 91446 91374 91230 91015 90735 90401 90020
1214.9342 89595 89116 88570 87943 87228 86430 85560 84630 83650 82626 81559
1220.2374 80446 79282 78052 76740 75323 73787 72126 70358 68525 66695 64960
1225.5408 63421 62181 61326 60921 61009 61602 62683 64195 66047 68112 70247
1230.8440 72308 74172 75760 77043 78040 78807 79408 79886 80247 80455 80446
1236.1473 80156 79542 78603 77379 75945 74403 72878 71503 70410 69714 69493
1241.4506 69778 70556 71774 73352 75198 77210 79294 81361 83337 85163 86793
1246.7539 88197 89357 90272 90957 91438 91747 91918 91978 91950 91845 91668
1252.0571 91422 91105 90723 90284 89803 89296 88788 88307 87889 87570 87382
1257.3605 87341 87442 87667 87983 88358 88766 89189 89622 90065 90517 90971
1262.6637 91415 91837 92225 92567 92838 93002 93026 92911 92716 92553 92549
1267.9670 92776 93204 93705 94114 94304 94228 93923 93479 92993 92531 92124
1273.2703 91772 91469 91214 91006 90847 90738 90680 90676 90730 90842 91006
1278.5736 91210 91441 91687 91940 92190 92429 92649 92841 93000 93120 93195
1283.8768 93215 93173 93065 92886 92639 92331 91974 91586 91187 90795 90419
1289.1802 90059 89709 89364 89023 88692 88376 88080 87803 87546 87315 87122
1294.4834 86988 86936 86982 87132 87371 87670 87986 88282 88527 88707 88818
1299.7867 88867 88861 88813 88736 88644 88548 88454 88359 88248 88107 87924
1305.0900 87708 87485 87298 87196 87217 87380 87676 88070 88513 88953 89347
1310.3933 89672 89915 90074 90154 90159 90101 89994 89856 89699 89533 89367
1315.6965 89209 89076 88992 88981 89064 89248 89526 89872 90250 90627 90973
1320.9999 91272 91510 91684 91796 91859 91893 91924 91972 92045 92141 92249
1326.3031 92354 92448 92530 92607 92685 92770 92855 92927 92962 92943 92867
1331.6064 92749 92615 92496 92411 92358 92320 92273 92197 92086 91943 91773
1336.9097 91579 91357 91098 90807 90506 90238 90052 89973 89990 90067 90168
1342.2130 90265 90341 90384 90383 90333 90238 90108 89956 89792 89620 89437
1347.5162 89238 89019 88781 88522 88241 87937 87602 87234 86831 86401 85954
1352.8196 85504 85065 84651 84278 83959 83702 83515 83401 83367 83419 83563
1358.1228 83799 84127 84544 85042 85601 86193 86794 87397 88012 88651 89292
1363.4261 89881 90364 90722 90977 91163 91314 91457 91611 91796 92032 92333
1368.7294 92694 93093 93495 93863 94175 94419 94591 94693 94737 94740 94729
1374.0327 94727 94737 94750 94750 94727 94681 94617 94537 94446 94350 94264
1379.3359 94200 94174 94190 94246 94333 94435 94540 94638 94721 94783 94818
1384.6393 94820 94786 94715 94614 94492 94369 94259 94164 94069 93951 93796
1389.9425 93594 93346 93068 92779 92491 92201 91890 91539 91143 90746 90436
1395.2458 90286 90288 90379 90501 90629 90769 90941 91162 91417 91662 91860
1400.5491 92001 92095 92156 92189 92190 92149 92058 91916 91744 91575 91442
1405.8524 91348 91272 91180 91049 90872 90659 90429 90200 89979 89763 89546
1411.1556 89328 89114 88911 88721 88546 88379 88215 88049 87880 87710 87546
1416.4590 87392 87248 87101 86933 86722 86470 86216 86001 85823 85652 85460
1421.7622 85227 84937 84578 84150 83673 83179 82680 82151 81551 80849 80046
1427.0656 79179 78307 77491 76789 76274 76036 76132 76532 77123 77801 78518
1432.3688 79270 80054 80837 81571 82227 82833 83475 84290 85363 86530 87441
1437.6721 87950 88168 88230 88204 88110 87952 87737 87481 87203 86913 86615
1442.9753 86305 85983 85654 85334 85036 84771 84538 84325 84122 83923 83738
1448.2787 83579 83455 83362 83298 83272 83302 83401 83558 83727 83847 83875
1453.5819 83801 83637 83406 83125 82798 82425 82011 81611 81320 81193 81205
1458.8853 81302 81443 81604 81777 81957 82139 82309 82447 82533 82549 82485
1464.1885 82339 82128 81885 81625 81332 80973 80522 79976 79367 78759 78220
1469.4918 77790 77467 77234 77083 77057 77268 77820 78603 79355 79944 80402
1474.7950 80821 81296 81890 82591 83306 83935 84450 84880 85263 85621 85952
1480.0984 86240 86462 86603 86650 86603 86469 86272 86050 85850 85711 85662
1485.4016 85724 85914 86236 86654 87089 87449 87692 87834 87925 88025 88163
1490.7050 88309 88410 88441 88402 88304 88161 87981 87767 87507 87183 86793
1496.0082 86376 86000 85690 85405 85080 84678 84216 83748 83306 82864 82361
1501.3115 81745 81006 80195 79385 78621 77888 77128 76263 75216 73984 72853
1506.6147 72439 72928 73919 75172 76642 78261 79909 81495 83002 84485 86007
1511.9181 87567 89068 90370 91395 92155 92713 93132 93451 93700 93926 94190
1517.2213 94507 94820 95064 95218 95282 95265 95181 95072 95042 95174 95399
1522.5247 95596 95725 95794 95823 95834 95851 95887 95938 95987 96028 96071
1527.8279 96137 96234 96346 96443 96501 96510 96475 96405 96310 96200 96092
1533.1312 96018 96015 96081 96178 96267 96329 96357 96352 96314 96241 96125
1538.4344 95951 95723 95512 95413 95422 95473 95532 95595 95654 95699 95719
1543.7378 95715 95698 95690 95709 95754 95805 95839 95842 95804 95713 95561
1549.0410 95348 95107 94900 94771 94712 94677 94626 94531 94377 94168 93945
1554.3444 93780 93703 93680 93654 93589 93459 93234 92875 92381 91999 92111
1559.6476 92501 92835 93060 93209 93302 93346 93342 93290 93196 93080 92978
1564.9509 92921 92909 92917 92912 92875 92799 92676 92503 92288 92075 91928
1570.2542 91856 91812 91750 91644 91486 91284 91057 90826 90602 90392 90214
1575.5575 90129 90224 90480 90753 90946 91050 91080 91046 90950 90791 90575
1580.8607 90308 89995 89637 89233 88783 88297 87790 87290 86833 86460 86209
1586.1641 86105 86153 86336 86622 86963 87311 87617 87837 87944 87926 87796
1591.4674 87588 87354 87153 87047 87090 87317 87734 88308 88974 89661 90307
1596.7706 90868 91320 91653 91870 91986 92019 91988 91911 91801 91667 91516
1602.0740 91349 91166 90970 90763 90545 90309 90042 89733 89377 88977 88546
1607.3772 88091 87611 87097 86536 85925 85277 84610 83936 83245 82506 81685
1612.6805 80770 79792 78807 77866 76982 76138 75333 74662 74356 74552 75085
1617.9838 75751 76505 77396 78467 79691 80972 82196 83310 84359 85459 86718
1623.2871 88089 89336 90258 90861 91256 91534 91745 91915 92058 92182 92284
1628.5903 92352 92377 92358 92294 92181 92013 91790 91524 91235 90943 90664
1633.8937 90416 90240 90216 90414 90757 91075 91305 91472 91601 91694 91739
1639.1969 91726 91667 91591 91539 91551 91646 91810 92001 92168 92280 92325
1644.5002 92312 92264 92212 92195 92245 92363 92521 92684 92829 92940 93007
1649.8035 93031 93013 92960 92875 92751 92578 92391 92373 92576 92800 92975
1655.1068 93116 93234 93332 93411 93472 93519 93557 93590 93614 93623 93610
1660.4100 93571 93511 93445 93397 93401 93469 93575 93678 93750 93785 93781
1665.7134 93739 93662 93552 93413 93243 93047 92844 92673 92559 92489 92430
1671.0166 92360 92279 92196 92114 92027 91925 91798 91650 91522 91476 91524
1676.3199 91608 91677 91714 91719 91698 91662 91627 91617 91646 91707 91771
1681.6232 91813 91808 91741 91610 91476 91531 91855 92194 92397 92491 92522
1686.9265 92518 92498 92475 92465 92482 92531 92609 92704 92797 92868 92903
1692.2297 92898 92855 92785 92697 92598 92495 92409 92378 92427 92510 92571
1697.5331 92592 92576 92524 92440 92356 92380 92585 92810 92934 92978 92977
1702.8363 92952 92914 92870 92832 92816 92839 92910 93021 93144 93247 93311
1708.1396 93334 93327 93302 93275 93256 93247 93244 93236 93214 93174 93116
1713.4429 93043 92965 92897 92851 92817 92778 92721 92655 92633 92738 92983
1718.7462 93265 93494 93653 93749 93793 93790 93749 93683 93608 93540 93484
1724.0494 93437 93392 93348 93309 93284 93276 93277 93269 93235 93165 93062
1729.3528 92952 92869 92831 92824 92813 92772 92686 92555 92413 92352 92445
1734.6560 92610 92730 92785 92794 92775 92732 92666 92575 92469 92384 92371
1739.9594 92448 92574 92689 92759 92784 92781 92776 92791 92830 92873 92893
1745.2626 92874 92814 92721 92616 92527 92477 92474 92497 92518 92521 92512
1750.5659 92518 92569 92673 92798 92906 92977 93008 93005 92979 92940 92901
1755.8691 92878 92884 92922 92977 93027 93056 93057 93032 92989 92936 92891
1761.1725 92878 92917 92996 93083 93147 93184 93196 93195 93186 93171 93144
1766.4757 93103 93049 93002 92987 93015 93067 93110 93117 93073 92981 92868
1771.7791 92799 92831 92939 93045 93108 93127 93122 93113 93117 93141 93177
1777.0823 93212 93236 93244 93232 93199 93150 93100 93069 93072 93104 93144
1782.3856 93170 93170 93143 93102 93070 93062 93080 93112 93140 93159 93169
1787.6888 93174 93175 93166 93138 93083 93000 92897 92800 92747 92776 92886
1792.9922 93028 93145 93215 93239 93229 93201 93173 93157 93152 93150 93142
1798.2954 93122 93092 93063 93045 93046 93063 93090 93124 93165 93214 93271
1803.5988 93333 93394 93443 93466 93454 93406 93331 93248 93177 93127 93097
1808.9020 93078 93062 93047 93040 93048 93074 93109 93145 93174 93196 93211
1814.2053 93219 93220 93212 93195 93174 93154 93144 93150 93172 93207 93246
1819.5085 93283 93310 93326 93331 93328 93319 93305 93284 93253 93215 93182
1824.8119 93174 93205 93265 93328 93366 93366 93322 93238 93129 93032 92995
1830.1151 93033 93115 93196 93253 93286 93309 93339 93384 93439 93487 93506
1835.4185 93484 93421 93336 93254 93199 93177 93178 93185 93182 93164 93134
1840.7217 93096 93055 93010 92957 92894 92822 92753 92704 92685 92687 92698
1846.0250 92716 92743 92779 92823 92867 92904 92933 92955 92971 92974 92959
1851.3282 92924 92878 92837 92811 92804 92806 92806 92797 92782 92771 92774
1856.6316 92794 92826 92858 92875 92874 92859 92847 92851 92876 92912 92934
1861.9348 92923 92873 92798 92727 92682 92669 92675 92679 92662 92620 92562
1867.2382 92499 92439 92386 92344 92329 92354 92422 92515 92607 92674 92699
1872.5414 92686 92652 92626 92627 92660 92707 92746 92756 92736 92697 92661
1877.8447 92641 92640 92645 92644 92632 92616 92615 92642 92697 92761 92809
1883.1479 92818 92782 92716 92649 92606 92601 92626 92657 92669 92647 92590
1888.4513 92517 92455 92438 92477 92561 92660 92746 92798 92810 92784 92741
1893.7545 92709 92711 92757 92829 92901 92950 92969 92965 92947 92922 92889
1899.0579 92849 92806 92766 92739 92730 92742 92768 92795 92802 92771 92698
1904.3611 92599 92508 92456 92454 92486 92517 92517 92474 92404 92337 92294
1909.6644 92281 92280 92269 92229 92164 92093 92049 92062 92145 92272 92388
1914.9677 92432 92372 92226 92053 91942 91965 92131 92365 92556 92641 92625
1920.2710 92548 92448 92350 92257 92163 92067 91981 91924 91907 91926 91972
1925.5742 92037 92126 92249 92412 92598 92770 92882 92910 92871 92813 92796
1930.8776 92852 92967 93083 93136 93083 92930 92724 92533 92409 92366 92386
1936.1808 92424 92442 92426 92394 92376 92395 92443 92492 92512 92497 92472
1941.4841 92479 92537 92621 92662 92607 92461 92278 92126 92053 92058 92087
1946.7874 92065 91942 91728 91486 91300 91236 91311 91488 91692 91844 91891
1952.0907 91818 91651 91449 91291 91256 91396 91701 92087 92422 92593 92558
1957.3939 92370 92136 91954 91854 91800 91733 91641 91575 91621 91832 92177
1962.6973 92552 92823 92906 92799 92586 92387 92308 92399 92633 92920 93152
1968.0005 93255 93218 93074 92869 92651 92465 92365 92394 92559 92800 92999
1973.3038 93030 92823 92423 91985 91710 91741 92086 92600 93049 93229 93077
1978.6071 92710 92354 92214 92368 92749 93193 93529 93654 93565 93336 93061
1983.9104 92802 92572 92369 92210 92154 92269 92578 93011 93410 93601 93501
1989.2136 93172 92772 92460 92326 92355 92449 92493 92426 92276 92121 92037
1994.5170 92070 92220 92441 92645 92732 92633 92357 91995 91690 91567 91667
1999.8202 91932 92236 92459 92553 92551 92522 92508 92498 92443 92318 92157
2005.1235 92053 92094 92297 92577 92792 92842 92758 92691 92811 93189 93735
2010.4268 94245 94508 94421 94032 93480 92902 92354 91818 91262 90707 90243
2015.7301 89984 89991 90225 90556 90840 91004 91073 91132 91269 91538 91952
2021.0333 92493 93119 93754 94293 94624 94673 94434 93966 93350 92658 91954
2026.3367 91319 90866 90705 90881 91320 91833 92202 92295 92134 91871 91673
2031.6399 91632 91731 91896 92069 92249 92471 92748 93037 93253 93330 93254
2036.9432 93066 92831 92595 92380 92191 92030 91892 91762 91617 91443 91256
2042.2465 91105 91046 91105 91262 91461 91634 91729 91718 91594 91378 91128
2047.5498 90927 90858 90957 91182 91431 91601 91646 91591 91496 91406 91335
2052.8530 91275 91231 91225 91286 91411 91553 91638 91617 91493 91321 91170
2058.1563 91080 91044 91026 90993 90942 90904 90916 90997 91131 91272 91368
2063.4597 91384 91318 91208 91107 91061 91077 91119 91135 91094 91012 90950
2068.7629 90971 91098 91288 91456 91518 91446 91272 91063 90869 90701 90534
2074.0662 90349 90161 90022 89998 90127 90394 90735 91056 91276 91353 91295
2079.3694 91142 90945 90747 90573 90436 90350 90322 90348 90404 90450 90447
2084.6729 90379 90261 90128 90014 89936 89896 89891 89921 89987 90084 90186
2089.9761 90262 90289 90267 90223 90185 90169 90173 90181 90181 90168 90146
2095.2793 90113 90067 90012 89968 89966 90033 90165 90321 90432 90440 90326
2100.5825 90126 89913 89763 89720 89779 89889 89983 90010 89958 89856 89749
2105.8860 89676 89646 89639 89629 89599 89560 89534 89543 89588 89649 89698
2111.1892 89711 89680 89609 89509 89394 89278 89179 89111 89081 89080 89087
2116.4924 89084 89063 89036 89027 89056 89131 89237 89348 89432 89467 89443
2121.7957 89364 89245 89112 88995 88924 88919 88983 89099 89232 89341 89398
2127.0991 89393 89337 89249 89152 89060 88984 88933 88906 88889 88860 88794
2132.4023 88688 88568 88489 88505 88634 88845 89062 89204 89228 89153 89056
2137.7056 89040 89176 89467 89827 90110 90173 89953 89500 88956 88481 88176
2143.0088 88055 88062 88126 88208 88310 88455 88657 88900 89143 89335 89438
2148.3123 89438 89364 89276 89245 89306 89425 89500 89420 89146 88759 88440
2153.6155 88377 88668 89265 89999 90653 91061 91169 91021 90706 90295 89816
2158.9187 89288 88768 88357 88158 88205 88433 88704 88877 88879 88741 88567
2164.2219 88464 88477 88579 88691 88742 88698 88576 88416 88263 88151 88103
2169.5254 88135 88247 88426 88638 88841 88993 89071 89081 89058 89048 89080
2174.8286 89142 89183 89132 88947 88641 88282 87962 87749 87666 87695 87801
2180.1318 87955 88135 88319 88475 88576 88612 88608 88607 88645 88718 88791
2185.4351 88827 88842 88917 89164 89639 90259 90791 90932 90485 89496 88253
2190.7385 87137 86445 86291 86595 87143 87681 88015 88068 87878 87557 87241
2196.0417 87042 87017 87162 87423 87727 88009 88233 88389 88480 88505 88454
2201.3450 88316 88088 87790 87463 87161 86936 86820 86817 86904 87041 87185
2206.6482 87297 87350 87331 87253 87146 87048 86986 86972 87000 87065 87170
2211.9517 87323 87516 87710 87850 87883 87797 87628 87441 87295 87217 87201
2217.2549 87223 87259 87292 87308 87287 87210 87074 86895 86712 86567 86487
2222.5581 86472 86505 86562 86629 86700 86776 86847 86898 86914 86896 86865
2227.8613 86850 86869 86917 86963 86973 86931 86842 86728 86612 86506 86418
2233.1648 86354 86319 86310 86314 86312 86294 86277 86291 86367 86508 86684
2238.4680 86848 86959 87001 86988 86946 86902 86871 86857 86852 86845 86817
2243.7712 86752 86647 86514 86382 86290 86263 86304 86384 86451 86457 86386
2249.0745 86262 86143 86088 86120 86212 86298 86316 86245 86117 85994 85934
2254.3779 85957 86046 86168 86292 86408 86512 86600 86663 86689 86673 86616
2259.6812 86523 86404 86280 86181 86146 86200 86331 86489 86601 86610 86515
2264.9844 86366 86240 86190 86218 86274 86298 86254 86154 86044 85974 85967
2270.2876 86017 86093 86163 86206 86215 86191 86137 86062 85975 85892 85828
2275.5911 85794 85788 85802 85819 85824 85812 85788 85767 85766 85791 85839
2280.8943 85894 85942 85973 85990 85998 86003 86004 85998 85979 85948 85905
2286.1975 85854 85800 85749 85711 85697 85716 85769 85850 85943 86027 86081
2291.5007 86089 86045 85961 85861 85775 85725 85715 85733 85754 85762 85753
2296.8042 85735 85721 85717 85721 85725 85724 85713 85693 85664 85633 85609
2302.1074 85608 85638 85696 85766 85822 85845 85829 85780 85710 85630 85546
2307.4106 85461 85382 85317 85273 85251 85244 85247 85256 85267 85276 85272
2312.7139 85246 85200 85154 85142 85188 85288 85410 85501 85519 85456 85337
2318.0173 85204 85091 85009 84948 84894 84848 84823 84835 84885 84959 85035
2323.3206 85094 85125 85126 85100 85052 84991 84933 84899 84900 84935 84984
2328.6238 85021 85020 84971 84880 84772 84681 84638 84663 84749 84863 84960
2333.9270 85004 84990 84943 84908 84918 84978 85054 85097 85083 85028 84975
2339.2305 84968 85019 85101 85165 85173 85126 85060 85019 85024 85062 85105
2344.5337 85133 85159 85209 85302 85423 85532 85594 85597 85550 85473 85388
2349.8369 85314 85268 85257 85274 85303 85324 85322 85291 85231 85154 85072
2355.1401 84993 84912 84815 84688 84527 84346 84175 84052 84017 84106 84337
2360.4436 84688 85092 85446 85659 85694 85591 85440 85327 85284 85282 85273
2365.7468 85237 85199 85206 85287 85430 85586 85705 85756 85745 85696 85640
2371.0500 85609 85627 85707 85847 86020 86193 86333 86425 86476 86501 86512
2376.3533 86513 86503 86483 86465 86466 86497 86559 86636 86710 86762 86787
2381.6567 86792 86791 86798 86823 86868 86924 86980 87026 87059 87082 87103
2386.9600 87132 87172 87220 87267 87308 87337 87357 87372 87388 87409 87434
2392.2632 87463 87493 87521 87545 87562 87570 87567 87557 87544 87534 87530
2397.5664 87533 87540 87552 87568 87591 87620 87648 87666 87666 87652 87638
2402.8699 87644 87684 87757 87842 87913 87946 87931 87877 87807 87750 87728
2408.1731 87748 87803 87876 87943 87991 88012 88008 87988 87958 87928 87904
2413.4763 87895 87908 87945 88000 88060 88112 88146 88160 88161 88158 88160
2418.7795 88169 88181 88191 88190 88180 88167 88166 88187 88234 88295 88346
2424.0830 88363 88330 88251 88147 88046 87974 87942 87948 87979 88023 88069
2429.3862 88113 88155 88194 88227 88255 88274 88285 88287 88282 88272 88263
2434.6895 88261 88268 88285 88308 88330 88349 88367 88388 88416 88447 88475
2439.9927 88490 88483 88455 88410 88360 88316 88290 88286 88304 88338 88376
2445.2961 88406 88421 88425 88427 88445 88486 88548 88618 88678 88714 88723
2450.5994 88714 88698 88684 88672 88658 88637 88607 88575 88548 88537 88548
2455.9026 88580 88626 88674 88713 88737 88748 88752 88755 88760 88764 88764
2461.2058 88759 88755 88759 88774 88793 88805 88800 88778 88749 88726 88719
2466.5093 88726 88736 88742 88743 88746 88758 88776 88788 88779 88746 88705
2471.8125 88682 88700 88764 88854 88940 88996 89013 89003 88987 88979 88983
2477.1157 88991 88992 88981 88957 88928 88897 88870 88848 88835 88837 88856
2482.4189 88896 88954 89026 89106 89190 89272 89346 89408 89452 89476 89482
2487.7224 89474 89459 89441 89421 89400 89377 89348 89314 89279 89243 89211
2493.0256 89184 89160 89142 89134 89141 89169 89216 89277 89339 89393 89431
2498.3289 89453 89461 89458 89450 89444 89445 89458 89483 89514 89545 89573
2503.6321 89599 89624 89644 89650 89635 89599 89550 89504 89471 89454 89451
2508.9355 89460 89481 89516 89560 89601 89626 89630 89622 89622 89645 89693
2514.2388 89751 89799 89816 89795 89738 89655 89556 89456 89373 89327 89333
2519.5420 89386 89467 89541 89583 89579 89542 89494 89458 89446 89454 89468
2524.8452 89478 89479 89474 89469 89466 89462 89456 89450 89452 89469 89504
2530.1487 89549 89593 89624 89637 89637 89634 89638 89651 89668 89682 89683
2535.4519 89670 89648 89624 89606 89600 89604 89617 89635 89659 89689 89727
2540.7551 89769 89810 89841 89857 89857 89844 89823 89800 89779 89766 89769
2546.0583 89792 89830 89871 89900 89902 89878 89841 89817 89824 89866 89927
2551.3618 89979 89999 89981 89939 89899 89884 89903 89946 89992 90019 90016
2556.6650 89988 89953 89931 89939 89979 90040 90102 90145 90158 90145 90122
2561.9683 90110 90120 90155 90205 90255 90291 90306 90305 90293 90285 90289
2567.2715 90313 90353 90400 90439 90455 90441 90400 90347 90298 90272 90274
2572.5750 90305 90355 90414 90467 90502 90509 90490 90453 90414 90391 90394
2577.8782 90420 90458 90491 90507 90505 90490 90472 90462 90464 90480 90508
2583.1814 90542 90576 90599 90599 90571 90519 90461 90421 90418 90457 90523
2588.4849 90587 90623 90619 90584 90542 90515 90518 90545 90582 90615 90638
2593.7881 90656 90676 90702 90731 90757 90771 90772 90763 90750 90735 90717
2599.0913 90694 90667 90641 90625 90623 90640 90674 90719 90770 90818 90857
2604.3945 90882 90891 90887 90879 90871 90867 90869 90874 90882 90894 90911
2609.6980 90934 90959 90984 91006 91028 91047 91064 91073 91073 91064 91052
2615.0012 91045 91049 91065 91089 91115 91136 91149 91157 91161 91166 91171
2620.3044 91177 91180 91180 91178 91176 91179 91187 91197 91203 91202 91192
2625.6077 91183 91182 91194 91218 91243 91259 91264 91260 91257 91263 91280
2630.9111 91302 91322 91333 91334 91330 91324 91322 91321 91319 91312 91296
2636.2144 91276 91258 91253 91266 91299 91342 91383 91409 91413 91398 91371
2641.5176 91344 91325 91314 91311 91312 91315 91319 91324 91327 91325 91318
2646.8208 91310 91305 91308 91318 91329 91335 91333 91328 91328 91337 91355
2652.1243 91378 91402 91426 91453 91484 91516 91540 91548 91540 91523 91509
2657.4275 91508 91520 91540 91556 91563 91559 91550 91541 91536 91538 91545
2662.7307 91560 91580 91603 91628 91649 91666 91676 91680 91678 91671 91663
2668.0339 91655 91649 91649 91653 91660 91670 91681 91695 91709 91723 91732
2673.3374 91733 91722 91701 91674 91646 91625 91618 91627 91650 91679 91703
2678.6406 91712 91705 91690 91678 91680 91695 91715 91729 91731 91722 91711
2683.9438 91704 91707 91716 91727 91737 91742 91743 91740 91732 91720 91707
2689.2471 91697 91692 91691 91691 91688 91681 91673 91666 91663 91663 91662
2694.5505 91658 91653 91648 91647 91650 91654 91655 91647 91632 91617 91609
2699.8538 91614 91632 91655 91675 91685 91684 91675 91664 91652 91637 91617
2705.1570 91591 91562 91537 91525 91532 91557 91598 91644 91687 91717 91730
2710.4602 91725 91706 91684 91667 91663 91676 91702 91734 91763 91781 91786
2715.7637 91783 91779 91782 91793 91808 91817 91815 91802 91784 91771 91766
2721.0669 91768 91769 91763 91747 91726 91706 91695 91694 91702 91714 91731
2726.3701 91750 91772 91794 91815 91829 91834 91827 91808 91780 91746 91713
2731.6733 91687 91674 91677 91693 91714 91730 91731 91708 91663 91603 91547
2736.9768 91515 91522 91568 91641 91713 91760 91769 91744 91701 91662 91642
2742.2800 91645 91661 91678 91682 91670 91644 91612 91580 91552 91527 91503
2747.5833 91482 91468 91468 91485 91516 91549 91571 91575 91560 91535 91507
2752.8865 91484 91467 91457 91451 91451 91457 91466 91476 91485 91490 91491
2758.1899 91486 91475 91455 91428 91400 91378 91370 91374 91385 91392 91390
2763.4932 91378 91360 91340 91323 91309 91299 91293 91291 91293 91297 91298
2768.7964 91293 91282 91269 91259 91252 91245 91236 91223 91209 91198 91196
2774.0996 91200 91204 91202 91189 91167 91140 91118 91105 91105 91117 91137
2779.4031 91158 91175 91183 91181 91172 91162 91157 91160 91171 91182 91188
2784.7063 91180 91158 91127 91096 91079 91084 91114 91161 91210 91249 91267
2790.0095 91265 91252 91236 91224 91216 91207 91194 91179 91166 91163 91173
2795.3127 91192 91212 91227 91237 91243 91251 91261 91268 91266 91253 91231
2800.6162 91211 91202 91206 91221 91238 91249 91253 91254 91257 91268 91290
2805.9194 91321 91355 91388 91417 91439 91452 91454 91445 91426 91406 91393
2811.2227 91396 91416 91443 91463 91464 91441 91402 91361 91329 91310 91301
2816.5259 91295 91290 91285 91284 91288 91296 91305 91310 91311 91307 91300
2821.8293 91289 91274 91254 91229 91202 91178 91163 91162 91171 91184 91193
2827.1326 91191 91178 91159 91138 91121 91108 91099 91094 91092 91091 91086
2832.4358 91073 91049 91018 90984 90956 90936 90926 90921 90916 90906 90887
2837.7390 90860 90824 90785 90746 90713 90686 90665 90647 90629 90610 90593
2843.0425 90584 90590 90620 90674 90745 90819 90881 90918 90929 90923 90911
2848.3457 90906 90908 90911 90905 90881 90837 90780 90721 90669 90632 90609
2853.6489 90597 90592 90589 90582 90568 90543 90504 90449 90380 90301 90217
2858.9521 90132 90054 89984 89923 89867 89813 89754 89689 89618 89545 89477
2864.2556 89421 89380 89356 89345 89342 89340 89331 89312 89284 89252 89223
2869.5588 89202 89188 89175 89152 89111 89053 88984 88915 88855 88808 88774
2874.8621 88752 88742 88752 88789 88861 88966 89093 89227 89350 89452 89529
2880.1653 89588 89640 89694 89754 89812 89859 89883 89880 89853 89810 89762
2885.4688 89719 89687 89666 89657 89656 89660 89667 89673 89678 89683 89687
2890.7720 89689 89687 89680 89669 89659 89661 89683 89729 89794 89868 89938
2896.0752 89996 90039 90066 90082 90085 90077 90057 90030 90005 89997 90013
2901.3784 90055 90109 90156 90180 90177 90159 90148 90160 90201 90258 90311
2906.6819 90343 90352 90346 90341 90349 90376 90422 90480 90539 90591 90631
2911.9851 90655 90667 90672 90673 90671 90666 90656 90642 90628 90615 90602
2917.2883 90584 90557 90520 90472 90416 90354 90289 90223 90158 90096 90033
2922.5916 89966 89890 89801 89700 89591 89480 89371 89268 89170 89076 88984
2927.8950 88889 88792 88694 88597 88502 88405 88300 88184 88059 87932 87812
2933.1982 87705 87609 87522 87438 87355 87274 87201 87140 87100 87091 87119
2938.5015 87190 87295 87420 87543 87647 87721 87762 87772 87756 87719 87668
2943.8047 87611 87555 87501 87444 87380 87307 87233 87170 87134 87130 87157
2949.1082 87207 87272 87346 87429 87522 87626 87736 87847 87947 88026 88076
2954.4114 88099 88105 88108 88118 88141 88170 88196 88211 88213 88204 88184
2959.7146 88151 88101 88036 87964 87898 87852 87834 87842 87874 87928 88008
2965.0178 88118 88254 88400 88533 88633 88690 88712 88720 88737 88777 88838
2970.3213 88903 88950 88962 88940 88897 88853 88827 88826 88846 88877 88906
2975.6245 88929 88946 88962 88981 89003 89028 89053 89076 89101 89130 89166
2980.9277 89209 89252 89289 89311 89317 89312 89304 89299 89298 89293 89276
2986.2310 89243 89196 89139 89079 89014 88943 88865 88788 88720 88669 88638
2991.5344 88619 88604 88585 88566 88553 88556 88584 88636 88711 88802 88900
2996.8376 88997 89084 89151 89194 89211 89209 89202 89201 89215 89240 89265
3002.1409 89271 89249 89198 89130 89060 88999 88952 88918 88896 88887 88893
3007.4441 88912 88935 88953 88954 88938 88913 88893 88891 88909 88940 88968
3012.7476 88983 88986 88989 89011 89065 89152 89259 89365 89453 89515 89552
3018.0508 89577 89598 89622 89648 89670 89681 89677 89659 89633 89607 89588
3023.3540 89577 89571 89567 89562 89557 89554 89552 89552 89549 89534 89500
3028.6572 89439 89347 89227 89088 88949 88832 88754 88722 88733 88776 88839
3033.9607 88908 88976 89036 89087 89133 89180 89233 89293 89355 89411 89453
3039.2639 89483 89505 89530 89563 89604 89647 89687 89722 89752 89775 89789
3044.5671 89786 89765 89732 89702 89686 89687 89694 89691 89667 89625 89580
3049.8704 89546 89533 89535 89542 89541 89526 89496 89454 89402 89345 89292
3055.1738 89253 89236 89240 89256 89273 89278 89265 89236 89195 89147 89095
3060.4771 89043 88991 88938 88877 88801 88704 88587 88463 88356 88291 88287
3065.7803 88351 88477 88648 88839 89028 89197 89340 89458 89557 89642 89715
3071.0835 89772 89811 89833 89843 89851 89867 89894 89932 89973 90010 90038
3076.3870 90056 90066 90072 90075 90076 90078 90084 90098 90121 90152 90184
3081.6902 90208 90216 90208 90187 90160 90133 90107 90077 90040 89999 89963
3086.9934 89945 89959 90006 90078 90158 90225 90268 90286 90288 90284 90280
3092.2966 90275 90267 90253 90241 90238 90251 90281 90319 90357 90389 90414
3097.6001 90437 90462 90489 90516 90537 90548 90543 90524 90492 90455 90423
3102.9033 90404 90404 90418 90438 90456 90465 90467 90465 90459 90447 90426
3108.2065 90398 90369 90347 90338 90343 90355 90366 90372 90376 90378 90378
3113.5098 90371 90349 90312 90270 90239 90236 90268 90328 90399 90463 90505
3118.8132 90519 90504 90467 90415 90361 90319 90301 90312 90348 90397 90443
3124.1165 90473 90482 90474 90458 90447 90452 90480 90528 90588 90643 90678
3129.4197 90681 90648 90586 90510 90441 90399 90397 90431 90487 90540 90568
3134.7229 90565 90539 90513 90508 90535 90587 90643 90681 90688 90668 90638
3140.0264 90617 90616 90632 90654 90666 90660 90634 90596 90557 90525 90506
3145.3296 90500 90505 90515 90528 90540 90550 90560 90572 90585 90599 90608
3150.6328 90607 90598 90583 90568 90558 90553 90549 90539 90523 90508 90502
3155.9360 90514 90543 90580 90612 90627 90629 90627 90632 90651 90678 90703
3161.2395 90716 90713 90696 90670 90638 90605 90575 90555 90552 90568 90600
3166.5427 90636 90664 90677 90675 90667 90663 90672 90698 90737 90782 90825
3171.8459 90858 90878 90882 90872 90848 90815 90779 90746 90723 90712 90713
3177.1492 90724 90742 90768 90802 90844 90891 90936 90967 90971 90942 90881
3182.4526 90803 90728 90677 90661 90678 90715 90757 90796 90834 90877 90923
3187.7559 90964 90983 90970 90932 90888 90858 90854 90868 90882 90879 90860
3193.0591 90840 90839 90867 90916 90968 91005 91019 91018 91014 91017 91028
3198.3623 91044 91057 91064 91067 91065 91058 91047 91036 91035 91052 91092
3203.6658 91148 91206 91249 91267 91258 91231 91201 91178 91171 91183 91216
3208.9690 91265 91320 91368 91395 91397 91380 91361 91356 91372 91403 91431
3214.2722 91442 91432 91412 91395 91391 91398 91408 91417 91424 91439 91469
3219.5754 91513 91563 91608 91641 91661 91673 91683 91693 91702 91706 91702
3224.8789 91685 91656 91617 91582 91565 91580 91628 91692 91745 91765 91749
3230.1821 91710 91671 91650 91647 91649 91641 91620 91591 91569 91562 91566
3235.4854 91570 91564 91541 91505 91465 91433 91415 91413 91423 91430 91419
3240.7886 91378 91306 91223 91155 91126 91140 91182 91220 91228 91197 91140
3246.0920 91078 91031 91007 91002 91006 91006 90991 90960 90916 90875 90849
3251.3953 90848 90866 90880 90865 90803 90700 90584 90488 90429 90406 90398
3256.6985 90385 90357 90320 90286 90261 90244 90227 90204 90175 90148 90127
3262.0017 90108 90083 90042 89985 89921 89861 89818 89793 89781 89776 89771
3267.3052 89766 89761 89755 89748 89734 89709 89670 89617 89556 89497 89449
3272.6084 89418 89399 89377 89337 89275 89200 89138 89111 89129 89182 89242
3277.9116 89279 89277 89238 89178 89115 89058 89005 88945 88870 88783 88702
3283.2148 88652 88658 88725 88829 88929 88975 88938 88825 88671 88527 88431
3288.5183 88394 88400 88422 88440 88444 88437 88424 88408 88389 88370 88354
3293.8215 88346 88348 88353 88352 88338 88309 88269 88229 88202 88193 88200
3299.1248 88217 88230 88234 88225 88208 88189 88170 88152 88134 88119 88114
3304.4280 88129 88166 88217 88269 88307 88324 88324 88316 88310 88313 88324
3309.7314 88341 88362 88386 88412 88439 88465 88486 88499 88503 88498 88488
3315.0347 88483 88491 88519 88569 88632 88691 88732 88747 88742 88731 88729
3320.3379 88741 88760 88770 88759 88725 88678 88633 88603 88593 88603 88631
3325.6411 88671 88717 88752 88760 88731 88668 88589 88520 88480 88473 88485
3330.9446 88495 88483 88444 88382 88313 88253 88211 88193 88194 88201 88201
3336.2478 88180 88135 88072 88008 87959 87932 87921 87912 87891 87847 87782
3341.5510 87707 87634 87574 87534 87518 87528 87560 87608 87656 87690 87697
3346.8542 87676 87635 87588 87551 87533 87535 87554 87578 87600 87615 87621
3352.1577 87622 87617 87606 87590 87568 87544 87525 87518 87525 87544 87567
3357.4609 87591 87613 87630 87638 87635 87618 87591 87566 87557 87571 87607
3362.7642 87651 87688 87707 87708 87695 87676 87654 87630 87604 87582 87572
3368.0674 87579 87601 87629 87651 87663 87665 87668 87679 87696 87713 87722
3373.3708 87721 87718 87726 87753 87796 87845 87884 87906 87913 87914 87919
3378.6741 87935 87964 88003 88047 88087 88117 88132 88136 88141 88160 88203
3383.9773 88267 88337 88395 88431 88447 88461 88487 88534 88597 88662 88717
3389.2805 88756 88786 88813 88846 88884 88927 88973 89023 89079 89137 89191
3394.5840 89232 89258 89276 89301 89351 89432 89534 89638 89719 89766 89781
3399.8872 89777 89769 89769 89779 89795 89812 89829 89848 89873 89909 89956
3405.1904 90014 90082 90155 90223 90276 90300 90292 90259 90221 90203 90222
3410.4937 90278 90354 90425 90467 90470 90439 90389 90336 90296 90280 90294
3415.7971 90340 90414 90504 90595 90667 90709 90716 90693 90655 90622 90608
3421.1003 90617 90637 90655 90656 90642 90623 90617 90633 90665 90698 90715
3426.4036 90710 90691 90673 90668 90675 90684 90681 90658 90614 90557 90498
3431.7068 90448 90418 90414 90439 90486 90538 90577 90590 90572 90529 90472
3437.0103 90412 90357 90314 90286 90271 90264 90256 90234 90193 90136 90075
3442.3135 90023 89986 89962 89941 89911 89865 89802 89724 89640 89563 89507
3447.6167 89479 89473 89477 89473 89448 89397 89329 89256 89192 89143 89103
3452.9199 89057 88992 88902 88797 88694 88615 88572 88558 88556 88542 88499
3458.2234 88425 88331 88233 88147 88084 88049 88039 88043 88043 88022 87971
3463.5266 87894 87809 87737 87689 87667 87659 87650 87632 87607 87583 87571
3468.8298 87580 87614 87674 87755 87845 87927 87983 88001 87982 87941 87903
3474.1331 87890 87910 87956 88010 88056 88089 88118 88158 88217 88292 88369
3479.4365 88434 88485 88527 88571 88618 88663 88695 88713 88732 88772 88847
3484.7397 88953 89069 89166 89229 89265 89293 89335 89398 89471 89536 89583
3490.0430 89612 89636 89669 89721 89794 89882 89973 90052 90109 90140 90156
3495.3462 90178 90225 90304 90403 90495 90560 90590 90599 90610 90643 90705
3500.6497 90785 90868 90940 90998 91052 91114 91190 91275 91355 91415 91450
3505.9529 91466 91474 91488 91519 91569 91632 91698 91757 91805 91844 91886
3511.2561 91942 92017 92108 92203 92287 92352 92400 92437 92466 92486 92485
3516.5593 92462 92427 92404 92421 92486 92584 92682 92747 92763 92734 92679
3521.8628 92617 92565 92532 92527 92558 92626 92723 92827 92910 92950 92941
3527.1660 92900 92857 92838 92852 92887 92924 92944 92944 92932 92921 92921
3532.4692 92933 92948 92955 92945 92921 92895 92884 92905 92963 93052 93149
3537.7725 93232 93280 93286 93258 93220 93200 93214 93252 93286 93280 93212
3543.0759 93092 92955 92847 92800 92819 92882 92960 93037 93106 93170 93226
3548.3792 93270 93298 93311 93315 93312 93302 93277 93235 93182 93135 93114
3553.6824 93124 93161 93212 93266 93317 93360 93392 93408 93401 93374 93339
3558.9856 93317 93327 93375 93446 93509 93541 93530 93483 93413 93333 93246
3564.2891 93146 93029 92905 92804 92771 92840 93000 93193 93355 93452 93486
3569.5923 93476 93446 93416 93404 93417 93451 93499 93545 93578 93588 93571
3574.8955 93533 93484 93441 93416 93419 93447 93489 93531 93563 93584 93594
3580.1990 93597 93593 93578 93555 93528 93506 93492 93483 93465 93424 93354
3585.5022 93260 93163 93092 93069 93099 93170 93263 93362 93454 93528 93575
3590.8054 93590 93573 93525 93456 93374 93288 93211 93157 93142 93176 93252
3596.1086 93349 93441 93509 93547 93560 93556 93545 93530 93508 93478 93445
3601.4121 93419 93410 93426 93460 93503 93542 93569 93580 93576 93560 93535
3606.7153 93506 93484 93486 93520 93579 93633 93652 93618 93536 93418 93290
3612.0186 93184 93135 93159 93243 93355 93465 93555 93614 93639 93626 93570
3617.3218 93473 93344 93210 93106 93065 93099 93193 93324 93470 93608 93719
3622.6252 93783 93791 93742 93655 93557 93475 93422 93394 93369 93323 93227
3627.9285 93070 92890 92794 92852 93013 93199 93367 93505 93602 93656 93667
3633.2317 93654 93644 93655 93685 93715 93726 93712 93680 93646 93628 93634
3638.5349 93653 93668 93665 93640 93600 93557 93523 93506 93501 93502 93500
3643.8384 93488 93466 93433 93393 93356 93339 93366 93439 93527 93577 93544
3649.1416 93411 93208 93021 92938 92977 93093 93233 93362 93457 93506 93504
3654.4448 93454 93374 93301 93280 93329 93418 93507 93576 93628 93668 93704
3659.7480 93737 93764 93785 93797 93800 93793 93776 93750 93718 93683 93645
3665.0515 93598 93540 93470 93393 93316 93248 93190 93139 93085 93028 92985
3670.3547 92979 93017 93076 93133 93171 93181 93154 93082 92969 92873 92913
3675.6580 93102 93305 93433 93477 93455 93389 93307 93244 93228 93266 93340
3680.9612 93425 93501 93556 93586 93597 93599 93604 93616 93628 93623 93582
3686.2646 93492 93347 93163 92992 92903 92920 92996 93074 93122 93144 93161
3691.5679 93192 93242 93301 93354 93390 93403 93393 93369 93345 93336 93348
3696.8711 93382 93428 93471 93493 93481 93429 93343 93242 93163 93144 93200
3702.1743 93294 93372 93399 93372 93314 93258 93237 93267 93338 93418 93481
3707.4778 93508 93499 93462 93410 93351 93281 93199 93115 93060 93060 93106
3712.7810 93152 93169 93159 93149 93167 93228 93321 93417 93483 93504 93480
3718.0842 93430 93373 93321 93265 93192 93094 92984 92895 92867 92919 93022
3723.3875 93130 93209 93246 93239 93196 93137 93083 93051 93045 93061 93085
3728.6909 93108 93121 93120 93106 93088 93079 93082 93080 93044 92953 92804
3733.9941 92620 92452 92379 92444 92607 92787 92932 93033 93092 93115 93109
3739.2974 93086 93064 93065 93097 93147 93187 93190 93133 93009 92846 92748
3744.6006 92816 92970 93087 93139 93138 93101 93040 92973 92928 92939 93002
3749.9041 93075 93105 93069 92980 92895 92883 92951 93054 93150 93225 93280
3755.2073 93328 93377 93426 93458 93453 93401 93309 93197 93105 93074 93112
3760.5105 93197 93297 93393 93467 93500 93471 93373 93218 93050 92936 92936
3765.8137 93052 93215 93348 93415 93415 93366 93296 93230 93190 93182 93198
3771.1172 93232 93283 93349 93417 93473 93503 93505 93489 93471 93461 93460
3776.4204 93455 93435 93389 93316 93228 93149 93109 93119 93161 93205 93230
3781.7236 93230 93209 93183 93172 93192 93241 93301 93348 93371 93377 93380
3787.0269 93391 93410 93430 93443 93449 93453 93462 93477 93487 93473 93426
3792.3303 93351 93264 93189 93137 93109 93095 93082 93066 93053 93055 93076
3797.6335 93105 93129 93137 93119 93063 92957 92800 92642 92575 92644 92798
3802.9368 92967 93105 93189 93215 93192 93142 93104 93117 93185 93262 93301
3808.2400 93296 93266 93232 93205 93186 93171 93154 93136 93122 93122 93137
3813.5435 93163 93190 93208 93210 93200 93195 93205 93219 93219 93185 93103
3818.8467 92959 92753 92516 92351 92390 92632 92919 93124 93224 93242 93208
3824.1499 93148 93082 93022 92980 92967 92987 93036 93099 93152 93178 93170
3829.4531 93131 93076 93034 93035 93084 93155 93206 93218 93193 93145 93094
3834.7566 93055 93030 93012 92990 92964 92936 92910 92888 92871 92867 92889
3840.0598 92947 93027 93100 93136 93125 93082 93036 93023 93054 93113 93164
3845.3630 93189 93188 93174 93166 93174 93197 93224 93243 93246 93232 93200
3850.6663 93148 93071 92961 92819 92676 92602 92644 92754 92854 92918 92954
3855.9697 92980 93010 93057 93120 93190 93247 93278 93271 93224 93144 93053
3861.2729 92983 92952 92952 92954 92932 92883 92835 92839 92919 93043 93154
3866.5762 93219 93227 93176 93068 92912 92746 92645 92667 92781 92912 93019
3871.8794 93084 93102 93076 93025 92989 93006 93075 93163 93240 93290 93307
3877.1829 93293 93252 93187 93099 92995 92893 92822 92799 92819 92863 92916
3882.4861 92974 93031 93081 93113 93120 93110 93108 93133 93181 93227 93251
3887.7893 93245 93214 93164 93108 93056 93020 93005 93011 93028 93046 93060
3893.0925 93071 93084 93102 93125 93147 93156 93142 93100 93033 92953 92886
3898.3960 92860 92882 92929 92962 92956 92913 92850 92792 92751 92725 92700
3903.6992 92673 92663 92700 92799 92948 93112 93254 93346 93379 93363 93319
3909.0024 93276 93251 93247 93253 93253 93239 93213 93185 93162 93146 93131
3914.3057 93109 93078 93042 93012 93003 93021 93060 93106 93149 93183 93210
3919.6091 93233 93255 93275 93288 93284 93257 93202 93127 93050 93000 93002
3924.9124 93057 93141 93220 93270 93282 93254 93198 93127 93059 93011 92991
3930.2156 92997 93025 93067 93111 93151 93180 93197 93202 93200 93196 93192
3935.5188 93194 93204 93220 93238 93252 93256 93250 93236 93221 93209 93198
3940.8223 93184 93162 93136 93117 93122 93159 93221 93287 93337 93357 93345
3946.1255 93305 93251 93196 93150 93118 93101 93103 93125 93160 93197 93222
3951.4287 93223 93198 93157 93113 93087 93089 93122 93178 93241 93294 93324
3956.7319 93326 93303 93269 93238 93223 93227 93247 93273 93296 93306 93303
3962.0354 93289 93269 93250 93235 93229 93232 93243 93255 93256 93238 93203
3967.3386 93164 93141 93153 93199 93262 93315 93338 93329 93306 93293 93307
3972.6418 93343 93383 93407 93402 93370 93325 93279 93246 93233 93240 93264
3977.9451 93295 93323 93336 93332 93316 93300 93291 93288 93284 93276 93270
3983.2485 93281 93316 93371 93426 93457 93450 93412 93362 93326 93313 93320
3988.5518 93335 93344 93346 93343 93343 93346 93351 93352 93342 93320 93287
3993.8550 93251 93222 93208 93213 93230 93249 93261 93266 93272 93288 93316
3999.1582 93348 93372 93377
##END= 
